%OpenBCI Raw EXG Data
%Number of channels = 16
%Sample Rate = 125 Hz
%Board = OpenBCI_GUI$BoardCytonSerialDaisy
Sample Index, EXG Channel 0, EXG Channel 1, EXG Channel 2, EXG Channel 3, EXG Channel 4, EXG Channel 5, EXG Channel 6, EXG Channel 7, EXG Channel 8, EXG Channel 9, EXG Channel 10, EXG Channel 11, EXG Channel 12, EXG Channel 13, EXG Channel 14, EXG Channel 15, Accel Channel 0, Accel Channel 1, Accel Channel 2, Not Used, Digital Channel 0 (D11), Digital Channel 1 (D12), Digital Channel 2 (D13), Digital Channel 3 (D17), Not Used, Digital Channel 4 (D18), Analog Channel 0, Analog Channel 1, Analog Channel 2, Timestamp, Marker Channel, Timestamp (Formatted)
0.0, -10322.884955750103, 2219.4388174341702, 64.17185833118657, -9004.087329398077, -4009.5676791152573, -8149.6248423605975, -5001.694560252972, -6271.720680203519, -5467.03552806801, 1987.2488960324404, -14640.146749037118, 3551.379269525918, 1956.0458607728317, 4436.329536000435, -1931.4365901275387, 4042.000060319908, 0.094, -0.116, 1.008, 192.0, 1.0, 120.0, 126.0, 48.0, 15.5, 64.0, 0.0, 0.0, 0.0, 1.7794601634798656E9, 0.0, 2026-05-22 16:29:23.479
2.0, -20626.07802463508, 4444.420867493256, 137.17265572221945, -18007.012368084477, -8006.372512146535, -16308.458603436782, -9993.353187245511, -12547.665840109092, -10602.773499819457, 4389.837907533397, -28803.799009776, 7527.39698021376, 4374.303445136958, 9296.515202106859, -3513.8059870965467, 8344.822626688794, 0.094, -0.116, 1.008, 192.0, 0.0, 0.0, 0.0, 0.0, 0.0, 0.0, 0.0, 0.0, 0.0, 1.779460163486862E9, 0.0, 2026-05-22 16:29:23.486
4.0, -20769.95620369389, 4343.838017444375, 142.64883311376968, -18172.750553220576, -8119.293525134746, -16468.139465825494, -9969.950910800804, -12614.519907774915, -10572.442182593606, 4330.851653915841, -28937.261275918638, 7505.089939247363, 4283.242438226037, 9213.210250521928, -3604.9340492408337, 8233.466235812455, 0.094, -0.116, 1.008, 192.0, 0.0, 0.0, 0.0, 0.0, 0.0, 0.0, 0.0, 0.0, 0.0, 1.7794601634938667E9, 0.0, 2026-05-22 16:29:23.493
6.0, -20604.374480768976, 4477.0320626535495, 136.52445513301555, -17973.596510123793, -8013.860346539062, -16278.46256237776, -10009.871126397984, -12532.801930046313, -10582.52281934295, 4355.19270362767, -28900.24678710065, 7497.020959498997, 4308.634019927266, 9226.308372772739, -3594.0711014355543, 8258.187265180024, 0.094, -0.116, 1.008, 192.0, 0.0, 0.0, 0.0, 0.0, 0.0, 0.0, 0.0, 0.0, 0.0, 1.7794601635018682E9, 0.0, 2026-05-22 16:29:23.501
8.0, -20696.486019669297, 4396.543430869989, 155.63519664230307, -18101.15791573023, -8069.069155343671, -16389.684842787367, -9962.39602117491, -12576.119610800697, -10577.38191811823, 4381.746576040576, -28819.400527405804, 7548.117047323829, 4360.825343230408, 9237.707762444945, -3524.1995482682646, 8341.492216764953, 0.09, -0.11800000000000001, 1.008, 192.0, 1.0, 104.0, 126.0, 40.0, 15.5, 64.0, 0.0, 0.0, 0.0, 1.7794601635108607E9, 0.0, 2026-05-22 16:29:23.510
10.0, -20706.745470374284, 4404.277134451525, 134.06576324293175, -18083.544741099446, -8068.286844287735, -16380.274758371683, -9986.290035997634, -12582.020471336898, -10562.585063288816, 4317.8429386428525, -28998.30389002608, 7467.8966364737325, 4232.973364946051, 9205.320084729205, -3648.542302673138, 8184.851191622161, 0.09, -0.11800000000000001, 1.008, 192.0, 0.0, 0.0, 0.0, 0.0, 0.0, 0.0, 0.0, 0.0, 0.0, 1.779460163518865E9, 0.0, 2026-05-22 16:29:23.518
12.0, -20610.74472793874, 4470.483001528144, 149.3543564503618, -17998.719870891557, -8009.524108114733, -16289.7948968166, -9985.530076686153, -12535.640601592137, -10597.342025916818, 4396.25285819207, -28798.814570762464, 7536.427084973703, 4331.969241138607, 9270.006033182864, -3511.794330095569, 8350.969356414003, 0.09, -0.11800000000000001, 1.008, 192.0, 0.0, 0.0, 0.0, 0.0, 0.0, 0.0, 0.0, 0.0, 0.0, 1.7794601635258694E9, 0.0, 2026-05-22 16:29:23.525
14.0, -20766.938718192425, 4357.4055263287455, 152.28243497400703, -18174.538692777, -8119.181766412469, -16464.96551811284, -9968.87802706695, -12615.235163597485, -10569.089420925311, 4339.47942727559, -28927.851191502952, 7509.806157327433, 4318.71465667661, 9220.653381425545, -3598.0720636930546, 8238.093046914702, 0.09, -0.11800000000000001, 1.008, 192.0, 0.0, 0.0, 0.0, 0.0, 0.0, 0.0, 0.0, 0.0, 0.0, 1.7794601635338657E9, 0.0, 2026-05-22 16:29:23.533
16.0, -20604.30742553561, 4493.572353550477, 155.83636234240083, -17968.61207111026, -8003.422081878434, -16271.824094274532, -10001.377463504967, -12530.589107345237, -10595.62094159376, 4355.8185524724195, -28906.706441248232, 7494.361101908816, 4277.118060245283, 9264.909835447053, -3587.18676414332, 8257.024974468348, 0.091, -0.11800000000000001, 1.008, 192.0, 1.0, 112.0, 126.0, 40.0, 15.5, 64.0, 0.0, 0.0, 0.0, 1.7794601635428596E9, 0.0, 2026-05-22 16:29:23.542
18.0, -20702.453935438865, 4407.808710075464, 174.3659584958504, -18099.48153489608, -8078.859219415095, -16404.52640110569, -9985.328910986056, -12593.173991820096, -10591.441165380618, 4378.4161661167345, -28822.775640818556, 7547.267681034527, 4361.71941300862, 9215.803052878744, -3525.8088738690467, 8331.344524782244, 0.091, -0.11800000000000001, 1.008, 192.0, 0.0, 0.0, 0.0, 0.0, 0.0, 0.0, 0.0, 0.0, 0.0, 1.7794601635498614E9, 0.0, 2026-05-22 16:29:23.549
20.0, -20720.648255425484, 4410.312105454458, 150.71781286213553, -18080.035517219963, -8075.0817746021485, -16393.842267256055, -9988.145230787424, -12590.357672018728, -10574.230322150031, 4307.248211771037, -29001.142561571905, 7471.04823244193, 4270.568999119878, 9194.948875301943, -3645.6812793828585, 8182.392499732077, 0.091, -0.11800000000000001, 1.008, 192.0, 0.0, 0.0, 0.0, 0.0, 0.0, 0.0, 0.0, 0.0, 0.0, 1.779460163557864E9, 0.0, 2026-05-22 16:29:23.557
22.0, -20636.851565462537, 4458.971853133661, 142.42531566921662, -18013.024987342953, -8024.946811788895, -16322.495498954715, -10000.058710582103, -12560.987479804455, -10614.351703447308, 4375.15281142626, -28816.98653900463, 7525.698247635156, 4351.504665792545, 9214.529003444792, -3517.270507487119, 8338.251213818934, 0.091, -0.11800000000000001, 1.008, 192.0, 0.0, 0.0, 0.0, 0.0, 0.0, 0.0, 0.0, 0.0, 0.0, 1.7794601635668576E9, 0.0, 2026-05-22 16:29:23.566
24.0, -20783.09902943361, 4350.655299503243, 151.09779251787575, -18192.665957530255, -8129.530624095277, -16487.004338145773, -9982.669053395874, -12634.79293999588, -10584.422717621652, 4318.71465667661, -28946.224325445215, 7490.963636751609, 4268.8255630523645, 9210.72920688739, -3605.448139363306, 8223.29619208529, 0.091, -0.11800000000000001, 1.008, 192.0, 0.0, 0.0, 0.0, 0.0, 0.0, 0.0, 0.0, 0.0, 0.0, 1.7794601635748622E9, 0.0, 2026-05-22 16:29:23.574
26.0, -20634.03524566117, 4464.805658436497, 143.4087924252501, -18004.7995453834, -8022.264602454258, -16299.584960888025, -10018.342437546544, -12552.851444822723, -10599.398386406707, 4330.315212048914, -28924.431374601292, 7470.690604530645, 4300.386226223258, 9229.9293553745, -3599.703741038292, 8238.920061459548, 0.0935, -0.115, 1.01, 192.0, 1.5, 0.0, 126.0, 64.0, 15.5, 80.0, 0.0, 0.0, 0.0, 1.7794601635818617E9, 0.0, 2026-05-22 16:29:23.581
28.0, -20716.647293167985, 4395.291733180491, 164.19591476868567, -18120.648636895257, -8077.607521725598, -16407.521534862703, -9978.668091138374, -12595.073890098798, -10603.980494020045, 4354.857427460841, -28841.975789305663, 7518.746855109555, 4337.356011552335, 9249.330669561705, -3526.345315735974, 8322.113254322203, 0.0935, -0.115, 1.01, 192.0, 0.0, 0.0, 0.0, 0.0, 0.0, 0.0, 0.0, 0.0, 0.0, 1.779460163589858E9, 0.0, 2026-05-22 16:29:23.589
30.0, -20736.361531777566, 4395.805823302963, 141.1736179797194, -18109.517468156515, -8093.186687610947, -16401.24069467076, -9999.45521348181, -12595.699738943547, -10595.486831127027, 4300.207412267615, -29028.769317718667, 7447.042458896931, 4197.92582964013, 9190.634988622069, -3658.2876632556518, 8168.310900725234, 0.0935, -0.115, 1.01, 192.0, 0.0, 0.0, 0.0, 0.0, 0.0, 0.0, 0.0, 0.0, 0.0, 1.7794601635988605E9, 0.0, 2026-05-22 16:29:23.598
32.0, -20639.019684674702, 4458.569521733466, 162.18425776770803, -18012.667359431667, -8024.96916353335, -16302.110708011474, -10002.539754216643, -12552.940851800544, -10623.515918673984, 4371.554180568955, -28820.652225095302, 7513.024808528997, 4363.753421754053, 9266.094477903185, -3519.2374609991866, 8343.369763299199, 0.0935, -0.115, 1.01, 192.0, 0.0, 0.0, 0.0, 0.0, 0.0, 0.0, 0.0, 0.0, 0.0, 1.7794601636058593E9, 0.0, 2026-05-22 16:29:23.605
34.0, -20792.710279549396, 4342.988651155073, 157.9150745767444, -18198.075079688442, -8139.834778289173, -16484.322128811138, -9985.731242386251, -12634.50236731796, -10592.491697370016, 4312.880851373774, -28946.53724986759, 7487.677930316679, 4288.405691195213, 9197.876953825587, -3605.6940085523142, 8236.886052714117, 0.0935, -0.115, 1.01, 192.0, 0.0, 0.0, 0.0, 0.0, 0.0, 0.0, 0.0, 0.0, 0.0, 1.7794601636138625E9, 0.0, 2026-05-22 16:29:23.613
36.0, -20623.66403623391, 4475.310978330491, 159.43499319970527, -17991.43320219913, -8015.804948306674, -16284.31871942505, -10010.921658387382, -12545.989459274944, -10591.731738058537, 4331.768075438509, -28924.14080192337, 7475.228008655073, 4273.8770572992635, 9228.655305940545, -3596.9768282147443, 8244.977384206937, 0.09475, -0.1125, 1.01, 192.0, 1.5, 0.0, 126.0, 72.0, 15.5, 72.0, 0.0, 0.0, 0.0, 1.7794601636228538E9, 0.0, 2026-05-22 16:29:23.622
38.0, -20703.549170917177, 4401.639628605799, 183.9548568671771, -18110.702110612645, -8070.253797799802, -16395.876276001487, -9972.029623035149, -12584.34505276025, -10588.088403712321, 4361.473543819612, -28824.340262930426, 7535.7788843845, 4343.033354643983, 9237.908928145043, -3512.666048129326, 8335.546652739842, 0.09475, -0.1125, 1.01, 192.0, 0.0, 0.0, 0.0, 0.0, 0.0, 0.0, 0.0, 0.0, 0.0, 1.7794601636298609E9, 0.0, 2026-05-22 16:29:23.629
40.0, -20743.514090003264, 4377.633855060799, 160.23965600009635, -18112.311436213426, -8085.631797985054, -16415.50110763325, -9987.564085431586, -12598.337244789273, -10570.207008148076, 4285.544667904934, -29013.257207066683, 7447.735362975045, 4272.446545654124, 9227.53771871778, -3643.8484363375233, 8174.591740917175, 0.09475, -0.1125, 1.01, 192.0, 0.0, 0.0, 0.0, 0.0, 0.0, 0.0, 0.0, 0.0, 0.0, 1.779460163638857E9, 0.0, 2026-05-22 16:29:23.638
42.0, -20633.74467298325, 4452.1992745637035, 177.15992655276378, -18005.17952503914, -8007.624209836032, -16308.302141225595, -9984.636006907942, -12547.375267431173, -10610.86483131228, 4354.253930360547, -28827.156582731794, 7505.872250303299, 4376.091584693383, 9209.857488853633, -3511.3025917175523, 8340.531091753375, 0.09475, -0.1125, 1.01, 192.0, 0.0, 0.0, 0.0, 0.0, 0.0, 0.0, 0.0, 0.0, 0.0, 1.7794601636478586E9, 0.0, 2026-05-22 16:29:23.647
44.0, -20794.923102250472, 4334.80791268443, 172.8236881284342, -18193.984710453118, -8129.642382817553, -16487.183152101417, -9970.330890456546, -12631.060198671843, -10584.37801413274, 4305.393016981247, -28943.363302154936, 7488.326130905883, 4282.013092280995, 9203.375482961594, -3586.605618787482, 8242.809264994772, 0.09475, -0.1125, 1.01, 192.0, 0.0, 0.0, 0.0, 0.0, 0.0, 0.0, 0.0, 0.0, 0.0, 1.7794601636548572E9, 0.0, 2026-05-22 16:29:23.654
46.0, -20635.46575730631, 4464.738603203131, 166.87812410332253, -17997.289359246417, -8024.58918387761, -16309.285617981628, -10013.067425855092, -12569.257625252918, -10607.601476621805, 4303.716636147098, -28944.30207542206, 7455.625528767769, 4276.9839497785515, 9232.231585053396, -3603.1682614288643, 8234.203843379479, 0.096375, -0.11125, 1.01, 192.0, 1.5, 8.0, 126.0, 72.0, 15.5, 72.0, 0.0, 0.0, 0.0, 1.7794601636618612E9, 0.0, 2026-05-22 16:29:23.661
48.0, -20709.986473320303, 4405.640590863299, 182.43493824421626, -18102.074337252896, -8077.048728114216, -16408.81793604111, -9981.618521406475, -12593.509267986927, -10597.833764294835, 4352.331680337391, -28831.47046941167, 7531.040314559975, 4373.476430592112, 9221.078064570196, -3519.7068476327477, 8332.529167238376, 0.096375, -0.11125, 1.01, 192.0, 0.0, 0.0, 0.0, 0.0, 0.0, 0.0, 0.0, 0.0, 0.0, 1.7794601636698556E9, 0.0, 2026-05-22 16:29:23.669
50.0, -20746.620982482553, 4389.323817410925, 169.06859505994262, -18119.531049672492, -8093.36550156659, -16423.190107725874, -9999.45521348181, -12609.110785616731, -10587.082575211833, 4274.279388699459, -29025.818887450565, 7445.053153640409, 4229.2629753664705, 9168.976148244876, -3656.7900963771463, 8165.986319301882, 0.096375, -0.11125, 1.01, 192.0, 0.0, 0.0, 0.0, 0.0, 0.0, 0.0, 0.0, 0.0, 0.0, 1.779460163677853E9, 0.0, 2026-05-22 16:29:23.677
52.0, -20614.768041940697, 4483.916399945784, 197.90234540728872, -17994.13776327822, -8003.131509200515, -16303.98825454572, -9992.056786067104, -12556.025392535377, -10608.026159766456, 4360.534770552489, -28813.834943036432, 7512.242497473061, 4372.761174769542, 9243.385105536594, -3514.8118155970355, 8335.323135295288, 0.096375, -0.11125, 1.01, 192.0, 0.0, 0.0, 0.0, 0.0, 0.0, 0.0, 0.0, 0.0, 0.0, 1.7794601636858592E9, 0.0, 2026-05-22 16:29:23.685
54.0, -20764.077694902146, 4367.597921800366, 201.5903832424144, -18178.137323634306, -8117.438330344955, -16483.204541588373, -9968.92273055586, -12632.669524272624, -10566.966005202057, 4323.609688712321, -28918.82108674301, 7500.86545954531, 4322.089770089361, 9226.666000684023, -3584.728072253236, 8242.876320228139, 0.096375, -0.11125, 1.01, 192.0, 0.0, 0.0, 0.0, 0.0, 0.0, 0.0, 0.0, 0.0, 0.0, 1.779460163694863E9, 0.0, 2026-05-22 16:29:23.694
56.0, -20611.83996341705, 4488.811431981496, 186.9946941130989, -17993.17663826664, -8012.541593616199, -16302.401280689393, -10013.64857121093, -12558.215863491996, -10575.839647750814, 4328.124741092293, -28921.145668166362, 7471.7187847755895, 4291.266714485492, 9212.025608065798, -3596.350979369996, 8234.852043968684, 0.094, -0.112, 1.01, 192.0, 1.0, 120.0, 126.0, 64.0, 15.5, 72.0, 0.0, 0.0, 0.0, 1.7794601637018707E9, 0.0, 2026-05-22 16:29:23.701
58.0, -20681.309185184145, 4433.312050498968, 210.50872928008192, -18095.68173833868, -8059.077925572148, -16392.143534677452, -9974.175390502858, -12594.380986020684, -10581.874618753745, 4367.240293889081, -28817.254759938096, 7536.382381484793, 4347.928386679696, 9260.573597022725, -3517.8516528429573, 8333.266774805401, 0.094, -0.112, 1.01, 192.0, 0.0, 0.0, 0.0, 0.0, 0.0, 0.0, 0.0, 0.0, 0.0, 1.77946016370986E9, 0.0, 2026-05-22 16:29:23.709
60.0, -20717.675473412928, 4421.465625937656, 195.66717096175802, -18106.812907077423, -8088.537524764243, -16419.56912512411, -9996.460079724799, -12615.078701386297, -10561.914510955157, 4301.369702979291, -28998.058020837074, 7466.533180061959, 4256.241530924026, 9219.312276758228, -3645.189541004842, 8175.3964037175665, 0.094, -0.112, 1.01, 192.0, 0.0, 0.0, 0.0, 0.0, 0.0, 0.0, 0.0, 0.0, 0.0, 1.779460163717858E9, 0.0, 2026-05-22 16:29:23.717
62.0, -20602.765155168196, 4493.79587099503, 195.77892968403455, -17996.015309812465, -8007.177174946925, -16301.440155677816, -9993.755518645707, -12552.940851800544, -10592.603456092294, 4377.432689360701, -28804.55896908748, 7523.396017956259, 4363.462849076134, 9243.295698558772, -3515.0800365304995, 8337.60301322973, 0.094, -0.112, 1.01, 192.0, 0.0, 0.0, 0.0, 0.0, 0.0, 0.0, 0.0, 0.0, 0.0, 1.7794601637258532E9, 0.0, 2026-05-22 16:29:23.725
64.0, -20764.25650885779, 4372.1353259247935, 196.538888995515, -18177.22090211164, -8109.4140540855005, -16471.514579238246, -9965.838189821028, -12620.040788655377, -10552.37031607274, 4330.583432982377, -28914.037813429575, 7504.419386913703, 4298.709845389109, 9233.863262398632, -3581.464717562761, 8259.953052991994, 0.094, -0.112, 1.01, 192.0, 0.0, 0.0, 0.0, 0.0, 0.0, 0.0, 0.0, 0.0, 0.0, 1.7794601637332835E9, 0.0, 2026-05-22 16:29:23.733
66.0, -20622.457042033322, 4491.717158760686, 182.18906905520788, -17984.03477478442, -8014.687361083908, -16291.98536777322, -10005.22196355128, -12547.799950575823, -10590.323578157851, 4336.372534796302, -28939.228229430704, 7465.639110283746, 4289.523278417978, 9226.755407661845, -3607.348037642007, 8239.925889960037, 0.094, -0.11800000000000001, 1.006, 192.0, 1.0, 120.0, 126.0, 40.0, 15.5, 56.0, 0.0, 0.0, 0.0, 1.779460163742273E9, 0.0, 2026-05-22 16:29:23.742
68.0, -20698.05064178117, 4415.1624340012595, 191.28622904851784, -18095.68173833868, -8064.151771563504, -16397.329139391084, -9981.372652217467, -12596.459698255027, -10583.036909465422, 4382.238314418592, -28812.627948835845, 7539.198701286162, 4366.234465388592, 9240.434675268492, -3515.3929609528736, 8347.907167423626, 0.094, -0.11800000000000001, 1.006, 192.0, 0.0, 0.0, 0.0, 0.0, 0.0, 0.0, 0.0, 0.0, 0.0, 1.7794601637502742E9, 0.0, 2026-05-22 16:29:23.750
70.0, -20752.186566851924, 4380.964264984639, 152.5283041630154, -18124.068453796917, -8097.433519057456, -16430.29796246266, -10008.395911263933, -12624.332323590796, -10579.460630352572, 4273.675891599166, -29021.50500077069, 7433.5643569903805, 4240.952937716596, 9178.118011727096, -3662.2886255131516, 8166.276891979801, 0.094, -0.11800000000000001, 1.006, 192.0, 0.0, 0.0, 0.0, 0.0, 0.0, 0.0, 0.0, 0.0, 0.0, 1.7794601637572749E9, 0.0, 2026-05-22 16:29:23.757
72.0, -20624.736919967763, 4476.227399853158, 169.89560960478897, -17988.818048097855, -8010.976971504328, -16298.310911454073, -10000.081062326559, -12548.850482565224, -10619.62671513876, 4347.660165746232, -28835.538486902537, 7494.204639697628, 4320.882775888775, 9238.668887456524, -3529.5863186819934, 8336.373667284688, 0.094, -0.11800000000000001, 1.006, 192.0, 0.0, 0.0, 0.0, 0.0, 0.0, 0.0, 0.0, 0.0, 0.0, 1.7794601637662706E9, 0.0, 2026-05-22 16:29:23.766
74.0, -20779.545102065218, 4360.870046719318, 184.1336708228196, -18171.051820641973, -8120.858147246618, -16476.342556040592, -9972.588416646531, -12625.02522766891, -10580.555865830884, 4325.889566646763, -28928.4770403477, 7507.883907304276, 4247.9937372200175, 9186.701081597934, -3579.5871710285155, 8270.860704286182, 0.094, -0.11800000000000001, 1.006, 192.0, 0.0, 0.0, 0.0, 0.0, 0.0, 0.0, 0.0, 0.0, 0.0, 1.779460163774274E9, 0.0, 2026-05-22 16:29:23.774
76.0, -20630.101338637036, 4477.3226353314685, 190.1909935702078, -17987.99103355301, -8021.392884420501, -16294.89109455241, -10004.462004239798, -12551.800912833323, -10601.588857363327, 4320.346334021847, -28946.090214978485, 7462.956900949109, 4271.306606686903, 9226.10720707264, -3610.119653954465, 8241.356401605177, 0.098, -0.122, 1.006, 192.0, 1.5, 8.0, 126.0, 24.0, 15.5, 56.0, 0.0, 0.0, 0.0, 1.7794601637812772E9, 0.0, 2026-05-22 16:29:23.781
78.0, -20696.508371413755, 4418.537547414011, 206.0160286445652, -18084.28234866647, -8068.935044876939, -16390.422450354392, -9982.222018506769, -12592.503439486438, -10591.284703169431, 4366.390927599779, -28818.662919838778, 7535.197739028662, 4347.660165746232, 9235.316125788228, -3516.7117138757367, 8350.455266291532, 0.098, -0.122, 1.006, 192.0, 0.0, 0.0, 0.0, 0.0, 0.0, 0.0, 0.0, 0.0, 0.0, 1.7794601637892776E9, 0.0, 2026-05-22 16:29:23.789
80.0, -20728.113738073556, 4412.971963044639, 192.4038162712832, -18102.074337252896, -8090.504478276311, -16409.53319186368, -9987.809954620596, -12599.365425034217, -10574.967929717057, 4295.80411860992, -29014.41949777836, 7459.425325325171, 4199.043416862895, 9177.916846027, -3655.8513231100233, 8183.018348576827, 0.098, -0.122, 1.006, 192.0, 0.0, 0.0, 0.0, 0.0, 0.0, 0.0, 0.0, 0.0, 0.0, 1.7794601637982695E9, 0.0, 2026-05-22 16:29:23.798
82.0, -20600.97701561177, 4502.334237376957, 219.20355787319636, -17979.676184615637, -8003.064453967149, -16285.995100259199, -9993.509649456699, -12545.698886597025, -10594.078671226343, 4396.275209936525, -28805.14011444332, 7534.482483206092, 4323.117950334305, 9280.444297843493, -3511.637867884382, 8359.75359198494, 0.098, -0.122, 1.006, 192.0, 0.0, 0.0, 0.0, 0.0, 0.0, 0.0, 0.0, 0.0, 0.0, 1.7794601638072743E9, 0.0, 2026-05-22 16:29:23.807
84.0, -20763.809473968682, 4378.997311472573, 215.38140957133885, -18167.16261710675, -8111.135138408558, -16469.614680959545, -9967.82749507755, -12624.30997184634, -10570.676394781638, 4338.875930175296, -28913.546075051556, 7516.198756241651, 4298.3522174778245, 9192.62429387859, -3578.827211717035, 8268.06673622927, 0.098, -0.122, 1.006, 192.0, 0.0, 0.0, 0.0, 0.0, 0.0, 0.0, 0.0, 0.0, 0.0, 1.7794601638132784E9, 0.0, 2026-05-22 16:29:23.813
86.0, -20618.210210586814, 4492.544173305532, 209.2123281016741, -17985.822914340846, -8004.4055586344675, -16289.727841583233, -9999.79048964864, -12549.76690408789, -10580.689976297615, 4337.311308063425, -28933.282665405593, 7476.747927278034, 4250.1618564321825, 9203.710759128424, -3600.240182905219, 8246.944337719004, 0.10200000000000001, -0.11800000000000001, 1.004, 192.0, 1.5, 24.0, 126.0, 40.0, 15.5, 48.0, 0.0, 0.0, 0.0, 1.77946016382227E9, 0.0, 2026-05-22 16:29:23.822
88.0, -20672.592004846574, 4440.68812616922, 241.60000581741403, -18078.359136385818, -8051.21011152388, -16375.223264124783, -9968.051012522104, -12584.21094229352, -10567.435391835617, 4388.876782521818, -28804.201341176195, 7553.6826316932, 4354.276282105003, 9251.521140518325, -3503.3230189470078, 8356.222016361, 0.10200000000000001, -0.11800000000000001, 1.004, 192.0, 0.0, 0.0, 0.0, 0.0, 0.0, 0.0, 0.0, 0.0, 0.0, 1.779460163830274E9, 0.0, 2026-05-22 16:29:23.830
90.0, -20731.466499741855, 4404.63476236281, 224.81384573147844, -18110.00920653453, -8079.708585704397, -16412.729491320788, -9981.774983617663, -12594.984483120978, -10550.604528260772, 4315.920688619696, -28996.78397140312, 7475.630340055269, 4223.40681831918, 9246.648460227068, -3635.466532166783, 8194.305979526756, 0.10200000000000001, -0.11800000000000001, 1.004, 192.0, 0.0, 0.0, 0.0, 0.0, 0.0, 0.0, 0.0, 0.0, 0.0, 1.7794601638372722E9, 0.0, 2026-05-22 16:29:23.837
92.0, -20616.779698941675, 4478.082594642949, 225.14912189830804, -17992.5954929108, -8006.663084824453, -16302.535391156125, -9999.946951859827, -12558.797008847834, -10589.138935701721, 4375.264570148536, -28811.644472079814, 7526.167634268718, 4340.172331353704, 9219.982829091887, -3508.486271916184, 8348.689478479562, 0.10200000000000001, -0.11800000000000001, 1.004, 192.0, 0.0, 0.0, 0.0, 0.0, 0.0, 0.0, 0.0, 0.0, 0.0, 1.7794601638452768E9, 0.0, 2026-05-22 16:29:23.845
94.0, -20771.900805461504, 4362.3899653422795, 226.64668877681362, -18172.325870075925, -8108.497632562832, -16482.131657854516, -9969.995614289715, -12628.065064914832, -10567.658909280171, 4334.852616173341, -28916.92118846431, 7514.723541107601, 4244.9986034630065, 9191.238485722362, -3575.9438366823006, 8266.859742028682, 0.10200000000000001, -0.11800000000000001, 1.004, 192.0, 0.0, 0.0, 0.0, 0.0, 0.0, 0.0, 0.0, 0.0, 0.0, 1.7794601638542683E9, 0.0, 2026-05-22 16:29:23.854
96.0, -20631.12951888198, 4478.283760343046, 208.8994036792998, -17999.301016247395, -8012.161613960459, -16310.55966741558, -10005.333722273555, -12559.333450714763, -10583.23807516552, 4311.360932750814, -28945.330255667002, 7465.683813772656, 4278.235647468048, 9203.040206794763, -3604.0176277181663, 8233.555642790276, 0.098, -0.12, 0.998, 192.0, 1.5, 8.0, 126.0, 32.0, 15.5, 24.0, 0.0, 0.0, 0.0, 1.7794601638612697E9, 0.0, 2026-05-22 16:29:23.861
98.0, -20686.561845131142, 4431.523910942544, 214.5543950264925, -18091.256092936528, -8058.161504049481, -16395.943331234852, -9974.756535858696, -12586.535523716871, -10572.509237826973, 4369.520171823522, -28807.755268544588, 7540.226881531105, 4358.947796696162, 9259.768934222333, -3502.183079979787, 8358.099562895246, 0.098, -0.12, 0.998, 192.0, 0.0, 0.0, 0.0, 0.0, 0.0, 0.0, 0.0, 0.0, 0.0, 1.7794601638692715E9, 0.0, 2026-05-22 16:29:23.869
100.0, -20742.888241158515, 4399.1362332268045, 174.56712419594817, -18127.354160231847, -8091.152678865515, -16440.9820963123, -9990.514515699688, -12612.575306007304, -10568.217702891554, 4288.092766772838, -29012.877227410943, 7452.04924965492, 4180.1338410537055, 9179.995558261342, -3649.8387038515457, 8181.364319487134, 0.098, -0.12, 0.998, 192.0, 0.0, 0.0, 0.0, 0.0, 0.0, 0.0, 0.0, 0.0, 0.0, 1.7794601638782673E9, 0.0, 2026-05-22 16:29:23.878
102.0, -20620.75830945472, 4475.087460885938, 182.2784760330291, -17998.541056935916, -8016.788425062708, -16311.856068593988, -10001.64568443843, -12557.411200691606, -10602.371168419262, 4351.839941959374, -28825.99429202012, 7508.353293937838, 4293.0101505530065, 9203.73311087288, -3525.2724320021193, 8343.258004576923, 0.098, -0.12, 0.998, 192.0, 0.0, 0.0, 0.0, 0.0, 0.0, 0.0, 0.0, 0.0, 0.0, 1.7794601638863275E9, 0.0, 2026-05-22 16:29:23.886
104.0, -20790.765677781783, 4348.934215180185, 175.28238001851798, -18192.308329618972, -8134.492711364354, -16500.080108652128, -9984.412489463388, -12646.415847112637, -10582.52281934295, 4310.600973439333, -28927.895894991863, 7498.473822888592, 4261.27067342647, 9206.862355096622, -3589.466642077761, 8256.890864001616, 0.097, -0.11699999999999999, 1.001, 192.0, 1.5, 0.0, 126.0, 56.0, 15.5, 48.0, 0.0, 0.0, 0.0, 1.7794601638932717E9, 0.0, 2026-05-22 16:29:23.893
106.0, -20648.407417345934, 4461.117620601371, 163.6594729017583, -18008.197010540607, -8029.908899057973, -16318.98627507523, -10013.469757255287, -12563.334412972263, -10595.129203215743, 4297.99458956654, -28959.702427351767, 7461.593444537336, 4231.006411433985, 9197.228753236384, -3619.3285726700515, 8229.062942154758, 0.097, -0.11699999999999999, 1.001, 192.0, 0.0, 0.0, 0.0, 0.0, 0.0, 0.0, 0.0, 0.0, 0.0, 1.779460163901268E9, 0.0, 2026-05-22 16:29:23.901
108.0, -20690.361641688545, 4422.180881760226, 187.48643249111564, -18091.457258636627, -8059.793181394718, -16392.143534677452, -9980.16565801688, -12591.810535408324, -10592.983435748034, 4348.509532035534, -28822.79799256301, 7527.464035447126, 4329.577604481889, 9232.298640286761, -3513.6271731409042, 8348.600071501742, 0.097, -0.11699999999999999, 1.001, 192.0, 0.0, 0.0, 0.0, 0.0, 0.0, 0.0, 0.0, 0.0, 0.0, 1.779460163910266E9, 0.0, 2026-05-22 16:29:23.910
110.0, -20730.930057874928, 4404.701817596176, 173.98597884011016, -18116.513564171026, -8080.4238415269665, -16427.034607772184, -9980.657396394898, -12607.009721637933, -10552.035039905912, 4303.247249513537, -28997.83450339252, 7472.590502809347, 4190.192126058594, 9195.239447979862, -3634.5948141330264, 8195.892953383083, 0.097, -0.11699999999999999, 1.001, 192.0, 0.0, 0.0, 0.0, 0.0, 0.0, 0.0, 0.0, 0.0, 0.0, 1.7794601639172766E9, 0.0, 2026-05-22 16:29:23.917
112.0, -20614.41041402941, 4474.88629518584, 174.43301372921633, -17998.42929821364, -8003.578544089622, -16303.22829523424, -9994.850754124016, -12552.136189000154, -10590.412985135674, 4375.085756192894, -28819.065251238975, 7528.0675325474185, 4305.236554770059, 9233.058599598242, -3514.990629552678, 8350.187045358069, 0.097, -0.11699999999999999, 1.001, 192.0, 0.0, 0.0, 0.0, 0.0, 0.0, 0.0, 0.0, 0.0, 0.0, 1.7794601639252822E9, 0.0, 2026-05-22 16:29:23.925
114.0, -20771.02908742775, 4355.975014683606, 182.83726964441178, -18183.479390559125, -8112.520946564788, -16481.997547387786, -9972.297843968612, -12633.854166728755, -10564.976699945533, 4320.458092744123, -28919.20106639875, 7505.849898558843, 4287.399862694724, 9228.767064662823, -3580.9282756958337, 8267.284425173333, 0.0955, -0.1175, 1.0074999999999998, 192.0, 1.0, 120.0, 126.0, 40.0, 15.5, 88.0, 0.0, 0.0, 0.0, 1.7794601639342656E9, 0.0, 2026-05-22 16:29:23.934
116.0, -20628.246143847246, 4471.6899957287305, 174.1424410512973, -17998.339891235817, -8012.608648849565, -16312.303103483095, -10003.567934461587, -12559.780485603867, -10568.932958714124, 4320.458092744123, -28945.263200433637, 7478.960749979109, 4247.479647097546, 9202.123785272097, -3605.448139363306, 8238.16010214807, 0.0955, -0.1175, 1.0074999999999998, 192.0, 0.0, 0.0, 0.0, 0.0, 0.0, 0.0, 0.0, 0.0, 0.0, 1.7794601639422696E9, 0.0, 2026-05-22 16:29:23.942
118.0, -20675.117751970025, 4428.595832418899, 191.42033951524968, -18081.466028865103, -8050.472503956856, -16387.29320613065, -9971.73905035723, -12589.44125049606, -10568.821199991848, 4377.455041105156, -28806.861198766375, 7561.796314930477, 4309.393979238746, 9239.294736301272, -3503.0995015024546, 8360.088868151768, 0.0955, -0.1175, 1.0074999999999998, 192.0, 0.0, 0.0, 0.0, 0.0, 0.0, 0.0, 0.0, 0.0, 0.0, 1.7794601639512694E9, 0.0, 2026-05-22 16:29:23.951
120.0, -20736.808566666674, 4395.761119814053, 167.86160085935603, -18128.96348583263, -8090.415071298489, -16433.449558430857, -9990.64862616642, -12608.954323405544, -10546.380048558718, 4291.825508096875, -29001.12020982745, 7485.532162848969, 4213.192071103104, 9214.193727277961, -3645.278947982663, 8191.467307980933, 0.0955, -0.1175, 1.0074999999999998, 192.0, 0.0, 0.0, 0.0, 0.0, 0.0, 0.0, 0.0, 0.0, 0.0, 1.7794601639572704E9, 0.0, 2026-05-22 16:29:23.957
122.0, -20607.727242437275, 4489.4596325707, 167.0792898034203, -17990.00269055399, -8010.708750570864, -16302.960074300776, -10009.55820197561, -12559.556968159315, -10582.120487942755, 4370.05661369045, -28818.70762332769, 7537.142340796273, 4328.147092836749, 9257.176131865517, -3523.640754656882, 8343.749742954938, 0.0955, -0.1175, 1.0074999999999998, 192.0, 0.0, 0.0, 0.0, 0.0, 0.0, 0.0, 0.0, 0.0, 0.0, 1.779460163966271E9, 0.0, 2026-05-22 16:29:23.966
124.0, -20765.374096080555, 4370.526000324011, 171.75080439457946, -18177.310309089462, -8120.478167590877, -16490.468858536347, -9973.013099791182, -12635.441140585082, -10559.61228127626, 4339.747648209053, -28909.09807790495, 7533.029619816497, 4297.033464554962, 9242.044000869275, -3580.6600547623702, 8270.63718684163, 0.09775, -0.11775, 1.00975, 192.0, 1.5, 16.0, 126.0, 40.0, 15.5, 80.0, 0.0, 0.0, 0.0, 1.7794601639732664E9, 0.0, 2026-05-22 16:29:23.973
126.0, -20625.5192310237, 4485.704539502209, 158.92090307723322, -17989.30978647587, -8034.4015996934895, -16316.08054829604, -10006.943047874338, -12555.399543690628, -10570.229359892532, 4335.120837106805, -28945.77729055611, 7493.489383875059, 4238.807170248887, 9248.011916638841, -3617.4286743913503, 8233.712105001463, 0.09775, -0.11775, 1.00975, 192.0, 0.0, 0.0, 0.0, 0.0, 0.0, 0.0, 0.0, 0.0, 0.0, 1.779460163981269E9, 0.0, 2026-05-22 16:29:23.981
128.0, -20672.346135657568, 4439.525835457544, 173.69540616219118, -18068.77023801449, -8049.176102778448, -16384.923921218386, -9971.02379453466, -12580.858180625222, -10577.09134544031, 4384.764061542041, -28804.827190020944, 7565.551407998969, 4316.390075253257, 9240.389971779583, -3511.347295206463, 8360.513551296419, 0.09775, -0.11775, 1.00975, 192.0, 0.0, 0.0, 0.0, 0.0, 0.0, 0.0, 0.0, 0.0, 0.0, 1.7794601639902563E9, 0.0, 2026-05-22 16:29:23.990
130.0, -20736.517993988753, 4399.493861138089, 160.57493216692595, -18127.48827069858, -8091.376196310067, -16437.025837543708, -9987.228809264758, -12603.701663458547, -10551.498598038985, 4308.119929804794, -28997.588634203512, 7485.15218319323, 4236.795513247909, 9204.582477162181, -3644.6530991379145, 8195.982360360904, 0.09775, -0.11775, 1.00975, 192.0, 0.0, 0.0, 0.0, 0.0, 0.0, 0.0, 0.0, 0.0, 0.0, 1.7794601639972665E9, 0.0, 2026-05-22 16:29:23.997
132.0, -20599.434745244354, 4499.115586175392, 167.50397294807112, -17983.36422245076, -8000.96338998835, -16297.148620742397, -9992.459117467299, -12539.686267338548, -10581.360528631274, 4382.953570241162, -28819.33347217244, 7536.002401829052, 4339.121799364305, 9279.237303642905, -3527.373495980918, 8349.851769191238, 0.09775, -0.11775, 1.00975, 192.0, 0.0, 0.0, 0.0, 0.0, 0.0, 0.0, 0.0, 0.0, 0.0, 1.779460164005264E9, 0.0, 2026-05-22 16:29:24.005
134.0, -20761.708409989886, 4371.15184916876, 172.13078405031968, -18179.27726260153, -8121.416940858, -16485.149143355982, -9973.035451535638, -12620.621934011215, -10557.242996363997, 4346.453171545645, -28905.275929603093, 7530.213300015128, 4292.317246474891, 9265.714498247446, -3577.150830882887, 8282.34950093621, 0.095875, -0.114875, 1.009875, 192.0, 1.0, 120.0, 126.0, 64.0, 15.5, 72.0, 0.0, 0.0, 0.0, 1.7794601640132692E9, 0.0, 2026-05-22 16:29:24.013
136.0, -20632.627085760487, 4476.227399853158, 165.33585373590634, -18000.88799010372, -8021.996381520794, -16312.280751738639, -10000.572800704575, -12549.901014554622, -10572.866865738257, 4321.1286450777825, -28954.49447089368, 7479.944226735142, 4220.143463628705, 9219.53579420278, -3618.4568546362943, 8239.836482982217, 0.095875, -0.114875, 1.009875, 192.0, 0.0, 0.0, 0.0, 0.0, 0.0, 0.0, 0.0, 0.0, 0.0, 1.7794601640222645E9, 0.0, 2026-05-22 16:29:24.022
138.0, -20677.48703688229, 4430.585137675422, 186.25708654607377, -18074.67109855069, -8049.0196405672605, -16387.069688686097, -9967.581625888542, -12574.756154388924, -10572.129258171231, 4378.639683561288, -28803.530788842534, 7562.06453586394, 4373.945817225673, 9235.53964323278, -3506.251097470653, 8365.18506588758, 0.095875, -0.114875, 1.009875, 192.0, 0.0, 0.0, 0.0, 0.0, 0.0, 0.0, 0.0, 0.0, 0.0, 1.7794601640292609E9, 0.0, 2026-05-22 16:29:24.029
140.0, -20747.78327319423, 4390.933143011706, 166.90047584777784, -18130.01401782203, -8097.008835912805, -16447.464102204336, -9988.458155209799, -12612.7764717074, -10556.304223096875, 4300.90031634573, -29004.472971495747, 7487.454412872125, 4220.12111188425, 9169.803162789722, -3642.3508694590178, 8194.127165571113, 0.095875, -0.114875, 1.009875, 192.0, 0.0, 0.0, 0.0, 0.0, 0.0, 0.0, 0.0, 0.0, 0.0, 1.7794601640372663E9, 0.0, 2026-05-22 16:29:24.037
142.0, -20614.253951818224, 4482.0835569004485, 166.475792703127, -17993.28839698892, -8003.86911676754, -16298.243856220706, -9994.403719234911, -12540.490930138938, -10588.647197323704, 4374.05757594795, -28826.731899587143, 7538.461093719136, 4317.820586898397, 9258.651346999568, -3519.2598127436418, 8345.582586000275, 0.095875, -0.114875, 1.009875, 192.0, 0.0, 0.0, 0.0, 0.0, 0.0, 0.0, 0.0, 0.0, 0.0, 1.7794601640462625E9, 0.0, 2026-05-22 16:29:24.046
144.0, -20770.246776371812, 4366.234465388592, 179.68567367621347, -18182.630024269823, -8110.621048286087, -16479.762372942256, -9960.183198473835, -12612.530602518393, -10567.144819157698, 4329.376438781791, -28915.311862863527, 7520.691456877167, 4319.13933982126, 9236.634878711091, -3569.1265546234317, 8276.4039369111, 0.0929375, -0.1144375, 1.0099375, 192.0, 1.0, 104.0, 126.0, 56.0, 15.5, 72.0, 0.0, 0.0, 0.0, 1.7794601640532615E9, 0.0, 2026-05-22 16:29:24.053
146.0, -20635.08577765057, 4477.434394053745, 164.06180430195383, -18013.449670487604, -8022.733989087819, -16315.61116166248, -10005.713701929297, -12551.62209887768, -10574.856170994779, 4318.893470632252, -28958.11545349544, 7479.720709290589, 4249.424248865157, 9221.413340737026, -3614.0982644675096, 8228.459445054466, 0.0929375, -0.1144375, 1.0099375, 192.0, 0.0, 0.0, 0.0, 0.0, 0.0, 0.0, 0.0, 0.0, 0.0, 1.7794601640612652E9, 0.0, 2026-05-22 16:29:24.061
148.0, -20674.246033936266, 4436.30718425598, 176.80229864147887, -18078.113267196808, -8051.277166757246, -16386.846171241545, -9979.36099521649, -12585.797916149846, -10575.929054728635, 4378.952607983662, -28808.135248200328, 7564.769096943033, 4374.661073048243, 9255.298585331271, -3510.989667295178, 8357.876045450694, 0.0929375, -0.1144375, 1.0099375, 192.0, 0.0, 0.0, 0.0, 0.0, 0.0, 0.0, 0.0, 0.0, 0.0, 1.7794601640692801E9, 0.0, 2026-05-22 16:29:24.069
150.0, -20741.457729513375, 4387.759195299053, 167.30280724797336, -18127.68943639868, -8089.096318375626, -16433.181337497394, -9973.326024213557, -12588.54718071785, -10551.118618383243, 4304.610705925311, -29003.243625550705, 7499.323189177894, 4255.7944960349205, 9180.353186172628, -3638.014631034688, 8200.34095052969, 0.0929375, -0.1144375, 1.0099375, 192.0, 0.0, 0.0, 0.0, 0.0, 0.0, 0.0, 0.0, 0.0, 0.0, 1.7794601640782683E9, 0.0, 2026-05-22 16:29:24.078
152.0, -20611.75055643923, 4475.132164374848, 158.58562691040362, -17997.75874587998, -7999.219953920836, -16295.673405608346, -9987.295864498123, -12535.28297368085, -10587.350796145296, 4369.296654378969, -28830.46464091118, 7537.857596618843, 4344.419162800213, 9248.21308233894, -3520.6679726443263, 8350.835245947272, 0.0929375, -0.1144375, 1.0099375, 192.0, 0.0, 0.0, 0.0, 0.0, 0.0, 0.0, 0.0, 0.0, 0.0, 1.7794601640852616E9, 0.0, 2026-05-22 16:29:24.085
154.0, -20761.10491288959, 4364.759250254542, 163.9500455796773, -18179.590187023903, -8112.386836098056, -16474.44265776189, -9958.551521128598, -12612.575306007304, -10565.021403434444, 4333.913842906219, -28906.72879299269, 7531.040314559975, 4294.597124409333, 9214.439596466971, -3566.6008074999822, 8288.2056579835, 0.1, -0.114, 1.006, 192.0, 1.5, 16.0, 126.0, 56.0, 15.5, 56.0, 0.0, 0.0, 0.0, 1.7794601640932603E9, 0.0, 2026-05-22 16:29:24.093
156.0, -20642.148928898445, 4463.509257258089, 141.1065627463535, -18023.84323165932, -8027.919593801451, -16321.266153009672, -9999.946951859827, -12550.660973866103, -10569.648214536694, 4315.920688619696, -28965.647991376878, 7481.7547180360225, 4274.748775333021, 9242.826311925211, -3621.3849331599395, 8229.19705262149, 0.1, -0.114, 1.006, 192.0, 0.0, 0.0, 0.0, 0.0, 0.0, 0.0, 0.0, 0.0, 0.0, 1.7794601641022549E9, 0.0, 2026-05-22 16:29:24.102
158.0, -20670.46858912332, 4431.143931286804, 159.74791762207957, -18078.67206080819, -8049.600785923099, -16372.988089679253, -9968.721564855763, -12574.77850613338, -10579.52768558594, 4374.571666070422, -28820.36165241738, 7553.146189826273, 4320.61455495531, 9248.905986417054, -3512.6883998737812, 8361.720545497006, 0.1, -0.114, 1.006, 192.0, 0.0, 0.0, 0.0, 0.0, 0.0, 0.0, 0.0, 0.0, 0.0, 1.7794601641092572E9, 0.0, 2026-05-22 16:29:24.109
160.0, -20748.565584250162, 4380.204305673159, 146.09100175988695, -18140.944020860676, -8109.570516296687, -16436.712913121333, -9988.011120320692, -12601.332378546284, -10553.018516661945, 4305.236554770059, -29011.290253554616, 7493.3776251527825, 4221.484568296024, 9195.798241591245, -3649.9281108293667, 8200.273895296323, 0.1, -0.114, 1.006, 192.0, 0.0, 0.0, 0.0, 0.0, 0.0, 0.0, 0.0, 0.0, 0.0, 1.7794601641172574E9, 0.0, 2026-05-22 16:29:24.117
162.0, -20607.213152314802, 4480.787155722041, 156.9986530540768, -17988.75099286449, -7999.778747532219, -16284.810457803067, -9981.082079539548, -12534.701828325013, -10588.133107201233, 4374.370500370324, -28835.76200434709, 7535.711829151133, 4357.316119350925, 9277.963254208953, -3527.6193651699264, 8354.567987271308, 0.1, -0.114, 1.006, 192.0, 0.0, 0.0, 0.0, 0.0, 0.0, 0.0, 0.0, 0.0, 0.0, 1.7794601641252625E9, 0.0, 2026-05-22 16:29:24.125
164.0, -20784.238968400834, 4341.558139509933, 142.96175753614398, -18199.03620470002, -8133.0174962303045, -16492.30170158168, -9978.533980671642, -12627.819195725822, -10568.262406380463, 4327.476540503089, -28918.06112743153, 7525.362971468327, 4281.074319013872, 9208.069349297208, -3573.9992349146887, 8288.004492283404, 0.098, -0.12, 1.008, 192.0, 1.5, 8.0, 126.0, 32.0, 15.5, 64.0, 0.0, 0.0, 0.0, 1.7794601641332629E9, 0.0, 2026-05-22 16:29:24.133
166.0, -20658.890385495473, 4445.314937271469, 125.84032128337876, -18031.08519686284, -8039.833073596129, -16327.792862390623, -10008.194745563835, -12554.885453568157, -10588.177810690142, 4294.798290109431, -28990.21255853326, 7469.751831263523, 4206.777120444432, 9213.277305755295, -3640.249805480219, 8218.19999434948, 0.098, -0.12, 1.008, 192.0, 0.0, 0.0, 0.0, 0.0, 0.0, 0.0, 0.0, 0.0, 0.0, 1.7794601641412585E9, 0.0, 2026-05-22 16:29:24.141
168.0, -20681.1303712285, 4420.30333522598, 147.96854829413275, -18084.081182966376, -8057.580358693643, -16377.95017694833, -9981.886742339939, -12576.566645689803, -10590.301226413398, 4359.841866474374, -28826.08369899794, 7561.125762596818, 4352.1752181262045, 9245.97790789341, -3516.510548175639, 8367.286129866377, 0.098, -0.12, 1.008, 192.0, 0.0, 0.0, 0.0, 0.0, 0.0, 0.0, 0.0, 0.0, 0.0, 1.779460164149256E9, 0.0, 2026-05-22 16:29:24.149
170.0, -20762.11074139008, 4369.810744501441, 123.33692590438437, -18156.70200070167, -8108.721150007385, -16453.566128440634, -9982.199666762313, -12615.101053130753, -10565.088458667811, 4291.043197040939, -29017.973425146753, 7493.288218174961, 4227.966574188063, 9187.8186688207, -3652.8114858641015, 8199.089252840193, 0.098, -0.12, 1.008, 192.0, 0.0, 0.0, 0.0, 0.0, 0.0, 0.0, 0.0, 0.0, 0.0, 1.779460164157841E9, 0.0, 2026-05-22 16:29:24.157
172.0, -20621.74178621075, 4464.760954947586, 131.11533297483123, -18003.838420371823, -8006.372512146535, -16300.054347521585, -9993.241428523235, -12545.72123834148, -10600.471270140562, 4368.357881111847, -28847.586077163945, 7545.63600368929, 4320.793368910953, 9222.061541326231, -3537.051801330066, 8342.252176076434, 0.098, -0.12, 1.008, 192.0, 0.0, 0.0, 0.0, 0.0, 0.0, 0.0, 0.0, 0.0, 0.0, 1.7794601641648383E9, 0.0, 2026-05-22 16:29:24.164
174.0, -20769.129189149047, 4346.944909923663, 144.48167615910486, -18189.871989473344, -8117.237164644857, -16474.06267810615, -9961.16667522987, -12609.893096672666, -10579.818258263858, 4328.370610281302, -28918.7763832541, 7541.500930965059, 4254.229873923048, 9225.704875672445, -3576.837906460513, 8293.123041763669, 0.098, -0.116, 1.008, 192.0, 1.5, 8.0, 126.0, 48.0, 15.5, 64.0, 0.0, 0.0, 0.0, 1.7794601641728373E9, 0.0, 2026-05-22 16:29:24.172
176.0, -20645.345228355556, 4454.300338542502, 137.48558014459374, -18012.71206292058, -8020.342352431101, -16304.144716756908, -9988.07817555406, -12535.9088225256, -10580.198237919598, 4318.446435743146, -28976.622697904433, 7500.060796744919, 4289.456223184612, 9277.337405364206, -3620.535566870638, 8242.742209761407, 0.098, -0.116, 1.008, 192.0, 0.0, 0.0, 0.0, 0.0, 0.0, 0.0, 0.0, 0.0, 0.0, 1.7794601641818335E9, 0.0, 2026-05-22 16:29:24.181
178.0, -20667.85343502205, 4425.734809128619, 149.26494947254056, -18065.19395890164, -8047.790294622218, -16360.7616854622, -9965.435858420833, -12561.792142604845, -10570.47522908154, 4383.422956874723, -28806.61532957737, 7588.014911176552, 4371.263607891036, 9232.745675175867, -3496.706902588237, 8393.415319134632, 0.098, -0.116, 1.008, 192.0, 0.0, 0.0, 0.0, 0.0, 0.0, 0.0, 0.0, 0.0, 0.0, 1.7794601641888368E9, 0.0, 2026-05-22 16:29:24.188
180.0, -20753.706485474886, 4366.480334577601, 134.08811498738706, -18145.392018007282, -8117.147757667037, -16442.412607957438, -9988.212286020791, -12603.858125669734, -10559.053487664878, 4301.593220423844, -29005.36704127396, 7511.39313118376, 4235.633222536233, 9174.362918658606, -3645.0777822825653, 8214.221383836435, 0.098, -0.116, 1.008, 192.0, 0.0, 0.0, 0.0, 0.0, 0.0, 0.0, 0.0, 0.0, 0.0, 1.7794601641968443E9, 0.0, 2026-05-22 16:29:24.196
182.0, -20603.346300524034, 4475.1545161193035, 147.34269944938416, -17987.007556796976, -8003.377378389523, -16280.451867634281, -9983.227847007258, -12534.992401002932, -10590.837668280325, 4369.251950890059, -28841.551106161012, 7547.200625801162, 4294.03833079795, 9260.439486555993, -3534.4589989732503, 8357.071382650302, 0.098, -0.116, 1.008, 192.0, 0.0, 0.0, 0.0, 0.0, 0.0, 0.0, 0.0, 0.0, 0.0, 1.7794601642058363E9, 0.0, 2026-05-22 16:29:24.205
184.0, -20777.309927619688, 4340.641717987266, 151.81304834044556, -18186.83215222742, -8123.026266458782, -16475.69435545139, -9970.77792534565, -12620.39841656666, -10571.369298859752, 4333.064476616916, -28904.694784247255, 7541.836207131888, 4351.19174137017, 9238.53477698979, -3563.493915020694, 8307.875193104172, 0.098, -0.11800000000000001, 1.006, 192.0, 1.5, 8.0, 126.0, 40.0, 15.5, 56.0, 0.0, 0.0, 0.0, 1.779460164213843E9, 0.0, 2026-05-22 16:29:24.213
186.0, -20661.885519252482, 4437.4694749676555, 141.4865424020937, -18025.430205515648, -8032.635811881521, -16322.920182099366, -9992.615579678486, -12553.611404134203, -10586.61318857827, 4300.833261112364, -28985.78691313111, 7484.7498517930335, 4236.393181847713, 9203.129613772586, -3622.3237064270625, 8238.58478529272, 0.098, -0.11800000000000001, 1.006, 192.0, 0.0, 0.0, 0.0, 0.0, 0.0, 0.0, 0.0, 0.0, 0.0, 1.7794601642208357E9, 0.0, 2026-05-22 16:29:24.220
188.0, -20683.790228818685, 4411.854375821874, 154.6964233751802, -18075.207540417618, -8060.843713384118, -16371.915205945399, -9980.925617328361, -12574.95732008902, -10597.073804983354, 4358.858389718341, -28824.675539097258, 7565.506704510058, 4335.232595829081, 9229.996410607864, -3503.7253503472034, 8380.719528284017, 0.098, -0.11800000000000001, 1.006, 192.0, 0.0, 0.0, 0.0, 0.0, 0.0, 0.0, 0.0, 0.0, 0.0, 1.7794601642288387E9, 0.0, 2026-05-22 16:29:24.228
190.0, -20762.91540419047, 4361.182971141693, 142.96175753614398, -18147.671895941723, -8112.677408775975, -16443.35138122456, -9982.803163862607, -12599.141907589665, -10564.887292967713, 4292.831336597364, -29010.08325935403, 7503.838241557866, 4257.135600702239, 9206.437671951971, -3637.9252240568667, 8220.47987228392, 0.098, -0.11800000000000001, 1.006, 192.0, 0.0, 0.0, 0.0, 0.0, 0.0, 0.0, 0.0, 0.0, 0.0, 1.779460164237831E9, 0.0, 2026-05-22 16:29:24.237
192.0, -20621.719434466297, 4455.97671937665, 140.32425169041775, -17993.981301067033, -8014.06151223916, -16292.342995684505, -10001.824498394073, -12539.082770238254, -10596.179735205144, 4350.9458721811625, -28848.122519030872, 7536.762361140533, 4314.646639185744, 9254.69508823098, -3531.150940793865, 8355.46205704952, 0.098, -0.11800000000000001, 1.006, 192.0, 0.0, 0.0, 0.0, 0.0, 0.0, 0.0, 0.0, 0.0, 0.0, 1.7794601642448387E9, 0.0, 2026-05-22 16:29:24.244
194.0, -20773.554834551196, 4339.881758675785, 157.35628096536172, -18178.27143410104, -8125.015571715305, -16471.559282727158, -9965.100582254003, -12609.982503650488, -10576.353737873285, 4322.5368049784665, -28916.876484975397, 7530.973259326609, 4302.353179735324, 9217.814709879722, -3571.674653491337, 8299.515640677886, 0.10200000000000001, -0.11, 1.004, 192.0, 1.5, 24.0, 126.0, 72.0, 15.5, 48.0, 0.0, 0.0, 0.0, 1.7794601642528484E9, 0.0, 2026-05-22 16:29:24.252
196.0, -20668.211062933337, 4430.316916741957, 137.59733886687027, -18026.257220060495, -8048.863178356073, -16329.268077524672, -10003.523230972676, -12558.037049536355, -10584.020386221455, 4307.09174955985, -28983.842311363496, 7490.807174540422, 4232.012239934474, 9200.782680604778, -3623.8883285389343, 8238.920061459548, 0.10200000000000001, -0.11, 1.004, 192.0, 0.0, 0.0, 0.0, 0.0, 0.0, 0.0, 0.0, 0.0, 0.0, 1.7794601642618337E9, 0.0, 2026-05-22 16:29:24.261
198.0, -20679.006955505247, 4411.496747910589, 157.46803968763825, -18065.8645112353, -8052.350050491101, -16358.817083694588, -9972.074326524058, -12557.567662902793, -10599.912476529178, 4365.295692121469, -28824.8543530529, 7562.220998075128, 4365.586264799388, 9307.93694352352, -3503.770053836114, 8385.94983648656, 0.10200000000000001, -0.11, 1.004, 192.0, 0.0, 0.0, 0.0, 0.0, 0.0, 0.0, 0.0, 0.0, 0.0, 1.7794601642698357E9, 0.0, 2026-05-22 16:29:24.269
200.0, -20781.892035233028, 4339.457075531134, 142.96175753614398, -18153.706866944656, -8119.0476559457375, -16456.11422730854, -9985.753594130707, -12611.97180890701, -10567.882426724724, 4297.614609910799, -29017.63814897992, 7495.7692618095, 4233.710972513077, 9175.078174481176, -3636.762933345191, 8224.793758963795, 0.10200000000000001, -0.11, 1.004, 192.0, 0.0, 0.0, 0.0, 0.0, 0.0, 0.0, 0.0, 0.0, 0.0, 1.779460164276834E9, 0.0, 2026-05-22 16:29:24.276
202.0, -20622.680559477874, 4457.094306599415, 155.00934779755448, -17995.0988882898, -8015.5590791176655, -16292.342995684505, -10001.22100129378, -12539.842729549735, -10618.509127915995, 4354.320985593914, -28864.32753376097, 7519.10448302084, 4308.656371671721, 9271.995338439387, -3536.3365455074963, 8354.947966927048, 0.101, -0.113, 1.005, 192.0, 1.5, 16.0, 126.0, 48.0, 15.5, 56.0, 0.0, 0.0, 0.0, 1.779460164284838E9, 0.0, 2026-05-22 16:29:24.284
204.0, -20782.942567222424, 4329.063514359416, 168.9791880821214, -18180.037221913008, -8123.2721356477905, -16480.924663653932, -9966.844018321517, -12622.052445656354, -10577.359566373774, 4338.317136563914, -28907.421697070804, 7532.314363993927, 4331.701020205142, 9202.995503305854, -3562.1975138422868, 8314.245440273933, 0.101, -0.113, 1.005, 192.0, 0.0, 0.0, 0.0, 0.0, 0.0, 0.0, 0.0, 0.0, 0.0, 1.7794601642938411E9, 0.0, 2026-05-22 16:29:24.293
206.0, -20679.72221132782, 4414.715399112153, 148.92967330571096, -18028.8053189284, -8043.766980620263, -16329.960981602788, -10007.50184148572, -12562.082715282764, -10591.284703169431, 4287.310455716903, -28993.945299857296, 7468.321319618383, 4251.055926210395, 9196.11116601362, -3626.5258343846604, 8240.43998008251, 0.101, -0.113, 1.005, 192.0, 0.0, 0.0, 0.0, 0.0, 0.0, 0.0, 0.0, 0.0, 0.0, 1.7794601643008332E9, 0.0, 2026-05-22 16:29:24.300
208.0, -20703.213894750344, 4382.3500731408685, 155.47873443111592, -18085.735212056068, -8062.0507075847045, -16377.123162403484, -9993.129669800957, -12581.327567258784, -10605.835688809835, 4347.459000046134, -28833.57153339047, 7540.49510246457, 4366.457982833145, 9266.161533136552, -3510.967315550723, 8381.591246317774, 0.101, -0.113, 1.005, 192.0, 0.0, 0.0, 0.0, 0.0, 0.0, 0.0, 0.0, 0.0, 0.0, 1.7794601643088295E9, 0.0, 2026-05-22 16:29:24.308
210.0, -20786.943529479926, 4326.627174213788, 153.55648440795952, -18168.8389979409, -8118.801786756729, -16465.747829168777, -9987.83230636505, -12618.565573521326, -10578.052470451888, 4261.561246104389, -29026.13181187294, 7467.695470773634, 4223.228004363537, 9205.275381240295, -3646.597700905526, 8212.209726835457, 0.101, -0.113, 1.005, 192.0, 0.0, 0.0, 0.0, 0.0, 0.0, 0.0, 0.0, 0.0, 0.0, 1.7794601643178265E9, 0.0, 2026-05-22 16:29:24.317
212.0, -20639.64553351945, 4431.367448731357, 160.61963565583656, -18010.253371030496, -8025.751474589286, -16313.867725594966, -10018.387141035455, -12558.305270469818, -10590.122412457755, 4320.368685766302, -28856.6608854128, 7510.320247449905, 4344.083886633383, 9200.894439327054, -3538.3258507640185, 8345.113199366713, 0.0965, -0.1135, 1.0085, 192.0, 1.0, 112.0, 126.0, 56.0, 15.5, 80.0, 0.0, 0.0, 0.0, 1.7794601643248324E9, 0.0, 2026-05-22 16:29:24.324
214.0, -20794.185494683446, 4309.192813538649, 173.00250208407667, -18195.795201754, -8133.889214264062, -16487.36196605706, -9986.781774375651, -12630.054370171354, -10569.37999360323, 4284.784708593454, -28907.95813893773, 7511.303724205938, 4348.330718079891, 9182.476601895882, -3569.417127301351, 8304.209507013502, 0.0965, -0.1135, 1.0085, 192.0, 0.0, 0.0, 0.0, 0.0, 0.0, 0.0, 0.0, 0.0, 0.0, 1.7794601643328304E9, 0.0, 2026-05-22 16:29:24.332
216.0, -20687.657080609453, 4399.449157649178, 152.37184195182826, -18047.603136015314, -8054.696983658909, -16342.634420708946, -10017.962457890804, -12569.056459552821, -10572.196313404598, 4252.17351343316, -28999.332070271026, 7453.703278744612, 4238.0695626818615, 9227.738884417879, -3637.8805205679564, 8223.810282207762, 0.0965, -0.1135, 1.0085, 192.0, 0.0, 0.0, 0.0, 0.0, 0.0, 0.0, 0.0, 0.0, 0.0, 1.7794601643408284E9, 0.0, 2026-05-22 16:29:24.340
218.0, -20688.461743409844, 4390.128480211315, 183.79839465598997, -18079.610834075313, -8051.254815012791, -16371.691688500845, -9982.579646418053, -12574.912616600112, -10581.47228735355, 4325.509586991023, -28827.491858898626, 7534.7283523951, 4364.714546765631, 9239.674715957013, -3507.83807132698, 8379.89251373917, 0.0965, -0.1135, 1.0085, 192.0, 0.0, 0.0, 0.0, 0.0, 0.0, 0.0, 0.0, 0.0, 0.0, 1.7794601643498352E9, 0.0, 2026-05-22 16:29:24.349
220.0, -20795.43719237294, 4320.458092744123, 160.93256007821086, -18183.479390559125, -8123.026266458782, -16474.420306017437, -9999.254047781713, -12628.914431204134, -10552.571481772839, 4252.195865177616, -29014.084221611527, 7469.036575440953, 4274.145278232727, 9187.930427542977, -3635.2877182111406, 8216.47891002642, 0.0965, -0.1135, 1.0085, 192.0, 0.0, 0.0, 0.0, 0.0, 0.0, 0.0, 0.0, 0.0, 0.0, 1.779460164356828E9, 0.0, 2026-05-22 16:29:24.356
222.0, -20642.88653646547, 4435.658983666776, 165.00057756907674, -18014.969589110566, -8025.103274000082, -16305.016434790665, -10019.4153212804, -12555.332488457261, -10591.128240958244, 4304.744816392043, -28867.926164618275, 7488.929628006176, 4359.707756007642, 9244.30152705926, -3548.1382665798983, 8332.529167238376, 0.09225, -0.11375, 1.00725, 192.0, 1.0, 96.0, 126.0, 56.0, 15.5, 56.0, 0.0, 0.0, 0.0, 1.7794601643648329E9, 0.0, 2026-05-22 16:29:24.364
224.0, -20790.72097429287, 4320.279278788481, 171.97432183913253, -18187.413297583258, -8134.000972986338, -16486.758468956767, -9994.426070979365, -12640.626745298714, -10569.894083725701, 4294.440662198146, -28907.19817962625, 7514.432968429682, 4337.981860397084, 9190.277360710783, -3569.215961601253, 8306.489384947943, 0.09225, -0.11375, 1.00725, 192.0, 0.0, 0.0, 0.0, 0.0, 0.0, 0.0, 0.0, 0.0, 0.0, 1.7794601643728347E9, 0.0, 2026-05-22 16:29:24.372
226.0, -20697.24597898078, 4396.744596570086, 143.22997846960766, -18054.889804707742, -8065.3364140196345, -16361.566348262591, -10034.927431932383, -12587.63075919518, -10575.414964606163, 4259.013147236485, -29002.729535428232, 7464.4991713165255, 4237.063734181373, 9158.00144171732, -3645.4577619383053, 8218.736436216406, 0.09225, -0.11375, 1.00725, 192.0, 0.0, 0.0, 0.0, 0.0, 0.0, 0.0, 0.0, 0.0, 0.0, 1.779460164380828E9, 0.0, 2026-05-22 16:29:24.380
228.0, -20696.977758047316, 4383.713529552642, 164.03945255749852, -18091.703127825633, -8063.861198885585, -16378.039583926153, -10003.4114722504, -12594.962131376522, -10595.375072404751, 4314.8478048858415, -28835.717300858178, 7534.281317505994, 4358.523113551511, 9224.49788147186, -3525.6300599134042, 8363.978071686992, 0.09225, -0.11375, 1.00725, 192.0, 0.0, 0.0, 0.0, 0.0, 0.0, 0.0, 0.0, 0.0, 0.0, 1.7794601643888285E9, 0.0, 2026-05-22 16:29:24.388
230.0, -20805.517829122287, 4309.013999583006, 145.53220814850428, -18195.281111631528, -8138.6501358330415, -16483.606872988566, -10011.949838632327, -12636.603431296759, -10572.352775615786, 4236.169664403161, -29032.055024153597, 7458.374793335771, 4239.343612115814, 9213.76904413331, -3656.7900963771463, 8195.647084194075, 0.09225, -0.11375, 1.00725, 192.0, 0.0, 0.0, 0.0, 0.0, 0.0, 0.0, 0.0, 0.0, 0.0, 1.7794601643968313E9, 0.0, 2026-05-22 16:29:24.396
232.0, -20625.988617657258, 4445.203178549192, 154.49525767508243, -18002.743184893512, -8019.336523930612, -16298.89205680991, -10019.795300936139, -12557.72412511398, -10587.194333934109, 4313.238479285059, -28868.19438555174, 7509.20266022714, 4350.05180240295, 9199.665093382013, -3551.8710079039347, 8327.3659142692, 0.094125, -0.110875, 1.0086249999999999, 192.0, 1.5, 0.0, 126.0, 80.0, 15.5, 72.0, 0.0, 0.0, 0.0, 1.7794601644058313E9, 0.0, 2026-05-22 16:29:24.405
234.0, -20785.222445156865, 4320.0110578550175, 143.3417371918842, -18199.03620470002, -8134.939746253461, -16488.993643402297, -9998.69525417033, -12641.163187165641, -10566.206045890576, 4303.068435557894, -28898.838627199966, 7530.258003504039, 4316.479482231079, 9229.817596652221, -3570.5570662685714, 8301.16966976758, 0.094125, -0.110875, 1.0086249999999999, 192.0, 0.0, 0.0, 0.0, 0.0, 0.0, 0.0, 0.0, 0.0, 0.0, 1.7794601644128294E9, 0.0, 2026-05-22 16:29:24.412
236.0, -20698.140048758993, 4391.849564534374, 113.77037927751294, -18065.126903668275, -8069.449134999411, -16368.517740788191, -10037.028495911181, -12588.211904551019, -10575.079688439333, 4257.001490235507, -29011.31260529907, 7457.301909601916, 4217.483606038524, 9180.241427450352, -3655.694860898836, 8205.05716860976, 0.094125, -0.110875, 1.0086249999999999, 192.0, 0.0, 0.0, 0.0, 0.0, 0.0, 0.0, 0.0, 0.0, 0.0, 1.7794601644208243E9, 0.0, 2026-05-22 16:29:24.420
238.0, -20703.32565347262, 4382.506535352056, 125.41563813872793, -18100.33090118538, -8081.6531874720085, -16401.66537781541, -10020.778777692172, -12604.551029747849, -10601.611209107783, 4310.9138978617075, -28844.322722473473, 7525.63119240179, 4384.96522724214, 9228.25297454035, -3537.0070978411554, 8348.376554057188, 0.094125, -0.110875, 1.0086249999999999, 192.0, 0.0, 0.0, 0.0, 0.0, 0.0, 0.0, 0.0, 0.0, 0.0, 1.7794601644298408E9, 0.0, 2026-05-22 16:29:24.429
240.0, -20790.095125448122, 4325.442531757657, 115.60322232284813, -18191.5930737964, -8138.024286988293, -16489.954768413874, -10009.3123327866, -12636.134044663197, -10564.820237734348, 4250.072449454361, -29027.338806073527, 7473.484572587558, 4231.676963767643, 9177.648625093536, -3661.863942368501, 8193.389558004088, 0.094125, -0.110875, 1.0086249999999999, 192.0, 0.0, 0.0, 0.0, 0.0, 0.0, 0.0, 0.0, 0.0, 0.0, 1.7794601644358346E9, 0.0, 2026-05-22 16:29:24.435
242.0, -20637.41035907392, 4432.328573742935, 123.4486846266609, -18020.222249057562, -8029.551271146688, -16326.407054234392, -10024.332705060568, -12570.017584564399, -10588.021348478955, 4310.176290294682, -28871.8153681535, 7509.783805582978, 4350.588244269878, 9227.224794295405, -3557.1013161064766, 8317.93347810906, 0.0950625, -0.1144375, 1.0083125, 192.0, 1.5, 0.0, 126.0, 40.0, 15.5, 64.0, 0.0, 0.0, 0.0, 1.7794601644448292E9, 0.0, 2026-05-22 16:29:24.444
244.0, -20787.4576196024, 4313.394941496246, 127.42729513970556, -18194.923483720242, -8136.526720109788, -16497.26378885076, -9995.186030290846, -12636.69283827458, -10575.057336694877, 4297.815775610898, -28908.472229060204, 7530.995611071064, 4331.119874849305, 9200.603866649135, -3572.65813024737, 8291.580771396253, 0.0950625, -0.1144375, 1.0083125, 192.0, 0.0, 0.0, 0.0, 0.0, 0.0, 0.0, 0.0, 0.0, 0.0, 1.7794601644548314E9, 0.0, 2026-05-22 16:29:24.454
246.0, -20700.934016815903, 4383.825288274919, 95.2631348685187, -18071.743020027046, -8081.921408405472, -16381.079421172075, -10041.811769224616, -12591.095279585754, -10574.587950061315, 4260.309548414892, -29011.871398910454, 7472.702261531623, 4257.761449546987, 9160.661299307501, -3656.34306148804, 8201.324427285723, 0.0950625, -0.1144375, 1.0083125, 192.0, 0.0, 0.0, 0.0, 0.0, 0.0, 0.0, 0.0, 0.0, 0.0, 1.77946016446183E9, 0.0, 2026-05-22 16:29:24.461
248.0, -20682.315013684634, 4389.301465666469, 127.44964688416087, -18088.10449696833, -8068.242140798824, -16387.09204043055, -9998.918771614883, -12588.25660803993, -10584.221551921553, 4321.575679966889, -28832.163373489784, 7546.060686833941, 4343.614499999821, 9224.631991938591, -3532.804969883558, 8352.243405847956, 0.0950625, -0.1144375, 1.0083125, 192.0, 0.0, 0.0, 0.0, 0.0, 0.0, 0.0, 0.0, 0.0, 0.0, 1.7794601644688213E9, 0.0, 2026-05-22 16:29:24.468
250.0, -20785.691831790427, 4320.413389255213, 122.35344914835086, -18195.392870353804, -8148.484903393377, -16495.16272487196, -10002.897382127927, -12637.02811444141, -10551.051563149878, 4254.945129745618, -29008.02689886414, 7488.996683239542, 4255.883903012741, 9186.924599042488, -3654.53257018716, 8200.3856540186, 0.0950625, -0.1144375, 1.0083125, 192.0, 0.0, 0.0, 0.0, 0.0, 0.0, 0.0, 0.0, 0.0, 0.0, 1.7794601644768288E9, 0.0, 2026-05-22 16:29:24.476
252.0, -20631.911829937915, 4437.313012756469, 119.00068748005481, -18022.502126992003, -8033.798102593197, -16328.731635657745, -10022.477510270775, -12565.882511840167, -10585.652063566693, 4308.522261204989, -28870.004876852618, 7506.6992648481455, 4340.351145309347, 9282.523010077835, -3561.0128713861554, 8316.994704841936, 0.09, -0.122, 1.008, 192.0, 1.0, 104.0, 126.0, 24.0, 15.5, 64.0, 0.0, 0.0, 0.0, 1.7794601644858277E9, 0.0, 2026-05-22 16:29:24.485
254.0, -20767.92219494846, 4334.293822561958, 129.03662074048768, -18201.27137914555, -8136.32555440969, -16507.50088781129, -9992.392062233934, -12641.945498221578, -10553.733772484515, 4304.834223369864, -28897.76574346611, 7532.91786109422, 4304.543650691945, 9178.587398360658, -3575.161525626365, 8291.893695818628, 0.09, -0.122, 1.008, 192.0, 0.0, 0.0, 0.0, 0.0, 0.0, 0.0, 0.0, 0.0, 0.0, 1.779460164491828E9, 0.0, 2026-05-22 16:29:24.491
0.0, -20686.695955597872, 4401.907849539262, 118.17367293520844, -18065.81980774639, -8067.348071020612, -16376.072630414086, -10028.825405696083, -12588.368366762206, -10561.84745572179, 4265.584560106345, -29003.176570317337, 7471.607026053313, 4284.337673704347, 9163.499970853325, -3657.3265382440736, 8200.452709251966, 0.09, -0.122, 1.008, 192.0, 0.0, 0.0, 0.0, 0.0, 0.0, 0.0, 0.0, 0.0, 0.0, 1.7794601645008228E9, 0.0, 2026-05-22 16:29:24.500
2.0, -20671.429714134898, 4409.552146142977, 132.5681963644262, -18083.947072499643, -8062.743611662819, -16387.360261364014, -9997.64472218093, -12586.267302783406, -10583.282778654431, 4338.473598775101, -28814.66195758128, 7560.321099796427, 4394.732939569109, 9212.696160399457, -3519.1704057658203, 8367.152019399646, 0.09, -0.122, 1.008, 192.0, 0.0, 0.0, 0.0, 0.0, 0.0, 0.0, 0.0, 0.0, 0.0, 1.7794601645088303E9, 0.0, 2026-05-22 16:29:24.508
4.0, -20788.44109635843, 4336.685459218676, 116.54199558997102, -18192.107163918874, -8138.806598044229, -16494.73804172731, -9990.939198844339, -12637.475149330516, -10564.976699945533, 4264.51167637249, -29006.238759307715, 7494.495212375547, 4264.019937994473, 9193.227790978885, -3646.374183460973, 8206.510031999354, 0.09, -0.122, 1.008, 192.0, 0.0, 0.0, 0.0, 0.0, 0.0, 0.0, 0.0, 0.0, 0.0, 1.7794601645168211E9, 0.0, 2026-05-22 16:29:24.516
6.0, -20629.3190275811, 4449.427658251245, 112.51868158801575, -18008.46523147407, -8035.54153866071, -16321.824946621055, -10020.801129436628, -12559.422857692583, -10599.130165473243, 4327.543595736456, -28872.865900142897, 7524.312439478927, 4327.744761436554, 9241.954593891454, -3560.9905196417, 8321.889736877649, 0.094, -0.116, 1.006, 192.0, 1.0, 120.0, 126.0, 48.0, 15.5, 56.0, 0.0, 0.0, 0.0, 1.7794601645248213E9, 0.0, 2026-05-22 16:29:24.524
8.0, -20775.074753174158, 4334.539691750967, 115.24559441156322, -18190.676652273734, -8142.51698762381, -16492.54757077069, -9992.772041889673, -12630.993143438476, -10587.86488626777, 4310.936249606162, -28899.48682778917, 7542.104428065351, 4299.603915167322, 9201.788509105267, -3575.988540171211, 8300.722634878473, 0.094, -0.116, 1.006, 192.0, 0.0, 0.0, 0.0, 0.0, 0.0, 0.0, 0.0, 0.0, 0.0, 1.779460164532828E9, 0.0, 2026-05-22 16:29:24.532
10.0, -20671.675583323908, 4431.233338264625, 102.84037623886779, -18050.508862794504, -8067.482181487344, -16355.821949937577, -10009.759367675706, -12568.855293852723, -10580.913493742168, 4290.685569129654, -29002.662480194867, 7494.67402633119, 4258.856685025297, 9209.097529542152, -3653.0350033086543, 8213.975514647427, 0.094, -0.116, 1.006, 192.0, 0.0, 0.0, 0.0, 0.0, 0.0, 0.0, 0.0, 0.0, 0.0, 1.7794601645428307E9, 0.0, 2026-05-22 16:29:24.542
12.0, -20667.294641410666, 4420.057466036972, 112.78690252147943, -18077.129790440773, -8068.286844287735, -16370.57410127808, -10002.427995494365, -12572.990366576954, -10590.43533688013, 4363.418145587224, -28818.52880937205, 7577.151963371273, 4350.834113458885, 9280.64546354359, -3517.4940249316724, 8381.054804450847, 0.094, -0.116, 1.006, 192.0, 0.0, 0.0, 0.0, 0.0, 0.0, 0.0, 0.0, 0.0, 0.0, 1.7794601645498328E9, 0.0, 2026-05-22 16:29:24.549
14.0, -20776.52761656375, 4345.268529089514, 111.84812925435654, -18180.46190505766, -8145.422714403, -16487.429021290423, -9998.807012892607, -12625.181689880097, -10563.56854004485, 4288.383339450757, -29003.98123311773, 7516.556384152936, 4293.613647653299, 9230.421093752515, -3647.178846261364, 8217.037703637803, 0.094, -0.116, 1.006, 192.0, 0.0, 0.0, 0.0, 0.0, 0.0, 0.0, 0.0, 0.0, 0.0, 1.7794601645568247E9, 0.0, 2026-05-22 16:29:24.556
16.0, -20625.07219613459, 4453.830951908941, 98.414730836717, -18013.0026355985, -8043.051724797693, -16314.538277928625, -10033.60867900952, -12555.421895435084, -10600.985360263034, 4341.871063932307, -28875.05637109952, 7542.886739121287, 4329.868177159808, 9226.509538472836, -3564.2315225877196, 8327.03063810237, 0.096, -0.11800000000000001, 1.01, 192.0, 1.5, 0.0, 126.0, 40.0, 15.5, 72.0, 0.0, 0.0, 0.0, 1.7794601645648265E9, 0.0, 2026-05-22 16:29:24.564
18.0, -20768.16806413747, 4338.294784819458, 107.75776001903535, -18192.80006799699, -8141.779380056785, -16487.45137303488, -10000.326931515567, -12632.155434150152, -10589.787136290925, 4325.397828268746, -28903.733659235677, 7547.670012434723, 4336.439590029668, 9236.411361266537, -3578.0001971721886, 8305.774129125373, 0.096, -0.11800000000000001, 1.01, 192.0, 0.0, 0.0, 0.0, 0.0, 0.0, 0.0, 0.0, 0.0, 0.0, 1.779460164572825E9, 0.0, 2026-05-22 16:29:24.572
20.0, -20686.94182478688, 4410.401512432279, 90.8598412108232, -18065.57393855738, -8072.5560274786985, -16367.735429732256, -10025.18207134987, -12583.361576004218, -10582.366357131763, 4284.784708593454, -29007.468105252756, 7491.343616407349, 4243.299870884403, 9199.218058492906, -3652.431506208361, 8214.467253025443, 0.096, -0.11800000000000001, 1.01, 192.0, 0.0, 0.0, 0.0, 0.0, 0.0, 0.0, 0.0, 0.0, 0.0, 1.7794601645808687E9, 0.0, 2026-05-22 16:29:24.580
22.0, -20672.971984502314, 4409.619201376343, 106.70722802963591, -18082.270691665493, -8070.231446055347, -16381.437049083359, -10008.12769033047, -12589.284788284873, -10611.133052245743, 4338.04891563045, -28828.721204843667, 7564.456172520659, 4357.360822839835, 9247.16255034954, -3524.8477488574686, 8369.2754351229, 0.096, -0.11800000000000001, 1.01, 192.0, 0.0, 0.0, 0.0, 0.0, 0.0, 0.0, 0.0, 0.0, 0.0, 1.7794601645888205E9, 0.0, 2026-05-22 16:29:24.588
24.0, -20793.22436967187, 4330.0469911154505, 98.37002734780638, -18193.492972075102, -8159.705479109941, -16500.191867374404, -10008.194745563835, -12635.016457440432, -10584.534476343928, 4272.692414843133, -29014.821829178552, 7511.482538161581, 4232.0792951678395, 9199.083948026175, -3650.5763114185706, 8214.400197792078, 0.096, -0.11800000000000001, 1.01, 192.0, 0.0, 0.0, 0.0, 0.0, 0.0, 0.0, 0.0, 0.0, 0.0, 1.7794601645968232E9, 0.0, 2026-05-22 16:29:24.596
26.0, -20617.383196041967, 4454.702669942698, 108.49536758606048, -18000.753879636988, -8043.901091086995, -16314.314760484072, -10033.049885398137, -12561.747439115936, -10603.354645175295, 4334.740857451065, -28876.732751933665, 7544.294899021972, 4358.187837384682, 9210.796262120755, -3567.450173789284, 8322.873213633682, 0.096, -0.116, 1.006, 192.0, 1.5, 0.0, 126.0, 48.0, 15.5, 56.0, 0.0, 0.0, 0.0, 1.7794601646038241E9, 0.0, 2026-05-22 16:29:24.603
28.0, -20762.11074139008, 4333.399752783746, 104.89673672875604, -18188.88851271731, -8146.964984770416, -16493.151067870986, -10012.307466543612, -12649.746257036479, -10588.535438601428, 4319.966354366106, -28892.021345141096, 7565.059669620952, 4317.552365964933, 9255.54445452028, -3576.547333782594, 8304.991818069437, 0.096, -0.116, 1.006, 192.0, 0.0, 0.0, 0.0, 0.0, 0.0, 0.0, 0.0, 0.0, 0.0, 1.779460164612822E9, 0.0, 2026-05-22 16:29:24.612
30.0, -20677.867016538028, 4409.462739165156, 96.55953604692651, -18057.39320008674, -8086.078832874159, -16382.599339795035, -10040.738885490762, -12599.857163412235, -10584.690938555115, 4285.634074882755, -29010.418535520857, 7501.334846178872, 4231.945184701108, 9195.15004100204, -3665.395517992439, 8194.95418011596, 0.096, -0.116, 1.006, 192.0, 0.0, 0.0, 0.0, 0.0, 0.0, 0.0, 0.0, 0.0, 0.0, 1.779460164620823E9, 0.0, 2026-05-22 16:29:24.620
32.0, -20654.174167415404, 4416.682352624221, 114.5526903334487, -18063.71874376759, -8067.482181487344, -16373.278662357172, -10014.654399711419, -12587.384890006173, -10593.363415403774, 4364.021642687517, -28815.66778608177, 7589.154850143773, 4408.389855431301, 9228.454140240448, -3522.3667052229293, 8366.883798466182, 0.096, -0.116, 1.006, 192.0, 0.0, 0.0, 0.0, 0.0, 0.0, 0.0, 0.0, 0.0, 0.0, 1.779460164627819E9, 0.0, 2026-05-22 16:29:24.627
34.0, -20791.637395815542, 4315.5183572195, 85.22720160808584, -18202.7465942796, -8159.146685498558, -16511.233629135328, -10017.314257301601, -12646.572309323825, -10583.439240865617, 4273.318263687881, -29016.520561757156, 7518.903317320743, 4247.74786803101, 9214.81957612271, -3657.1253725439756, 8201.547944730275, 0.096, -0.116, 1.006, 192.0, 0.0, 0.0, 0.0, 0.0, 0.0, 0.0, 0.0, 0.0, 0.0, 1.779460164636819E9, 0.0, 2026-05-22 16:29:24.636
36.0, -20619.283094320668, 4449.40530650679, 89.51873654350479, -18008.24171402952, -8044.728105631842, -16329.312781013583, -10035.374466821488, -12563.379116461172, -10612.317694701875, 4332.326869049892, -28886.94749914974, 7548.273509535016, 4328.9964591260505, 9229.795244907767, -3579.453060561784, 8305.304742491811, 0.088, -0.114, 1.004, 192.0, 1.0, 96.0, 126.0, 56.0, 15.5, 48.0, 0.0, 0.0, 0.0, 1.7794601646448252E9, 0.0, 2026-05-22 16:29:24.644
38.0, -20757.68509598793, 4342.1392848657715, 100.962829704622, -18186.630986527325, -8147.143798726059, -16498.06845165115, -10001.064539082592, -12631.842509727778, -10589.585970590828, 4324.52611023499, -28895.687031231766, 7567.473658022125, 4321.218052055604, 9207.801128363744, -3580.123612895443, 8298.375701710665, 0.088, -0.114, 1.004, 192.0, 0.0, 0.0, 0.0, 0.0, 0.0, 0.0, 0.0, 0.0, 0.0, 1.7794601646518204E9, 0.0, 2026-05-22 16:29:24.651
40.0, -20685.265443952732, 4410.759140343564, 78.8122509494127, -18074.514636339503, -8086.704681718908, -16381.369993849994, -10034.905080187928, -12582.735727159468, -10589.764784546469, 4283.1530312482155, -29021.884980426432, 7498.384415910771, 4258.163780947182, 9193.96539854591, -3671.6763581843807, 8190.215610291435, 0.088, -0.114, 1.004, 192.0, 0.0, 0.0, 0.0, 0.0, 0.0, 0.0, 0.0, 0.0, 0.0, 1.7794601646598196E9, 0.0, 2026-05-22 16:29:24.659
42.0, -20658.95744072884, 4418.515195669555, 103.68974252816946, -18071.407743860214, -8065.381117508545, -16374.19508387984, -9997.667073925386, -12570.643433409148, -10602.617037608272, 4363.239331631581, -28828.050652510006, 7584.1257076413285, 4386.4851458651, 9265.155704636063, -3524.5795279240047, 8364.112182153724, 0.088, -0.114, 1.004, 192.0, 0.0, 0.0, 0.0, 0.0, 0.0, 0.0, 0.0, 0.0, 0.0, 1.7794601646688175E9, 0.0, 2026-05-22 16:29:24.668
44.0, -20781.959090466393, 4336.23842432957, 98.34767560335108, -18191.436611585214, -8146.94263302596, -16491.31822482565, -9985.127745285958, -12615.726901975502, -10572.732755271525, 4291.445528441135, -29006.104648840985, 7528.7157331366225, 4270.792516564431, 9249.129503861608, -3641.367392702984, 8214.646066981086, 0.091, -0.113, 1.001, 192.0, 1.0, 120.0, 126.0, 64.0, 15.5, 24.0, 0.0, 0.0, 0.0, 1.779460164676819E9, 0.0, 2026-05-22 16:29:24.676
46.0, -20628.69317873635, 4449.628823951343, 90.5022132995383, -18012.779118153943, -8044.661050398476, -16321.668484409867, -10029.183033607369, -12557.522959413882, -10607.154441732699, 4340.217034842615, -28895.128237620385, 7549.838131646888, 4364.379270598802, 9232.298640286761, -3572.8816476919233, 8309.640980916141, 0.091, -0.113, 1.001, 192.0, 0.0, 0.0, 0.0, 0.0, 0.0, 0.0, 0.0, 0.0, 0.0, 1.779460164683817E9, 0.0, 2026-05-22 16:29:24.683
48.0, -20738.686113200918, 4362.457020575645, 123.87336777131173, -18163.899262416275, -8115.761949510807, -16468.988832114796, -9972.4543061798, -12607.300294315852, -10585.987339733523, 4333.913842906219, -28890.18850209576, 7579.320082583437, 4321.396866011246, 9216.63006742359, -3564.6785574768255, 8314.491309462943, 0.091, -0.113, 1.001, 192.0, 0.0, 0.0, 0.0, 0.0, 0.0, 0.0, 0.0, 0.0, 0.0, 1.7794601646928155E9, 0.0, 2026-05-22 16:29:24.692
50.0, -20674.447199636365, 4428.260556252069, 107.6236495523035, -18061.885900722256, -8076.400527525012, -16370.439990811348, -10011.256934554212, -12567.357726974216, -10559.478170809529, 4307.248211771037, -28998.34859351499, 7528.693381392167, 4250.9218157436635, 9205.789471362767, -3642.7755526036685, 8222.223308351435, 0.091, -0.113, 1.001, 192.0, 0.0, 0.0, 0.0, 0.0, 0.0, 0.0, 0.0, 0.0, 0.0, 1.7794601647008226E9, 0.0, 2026-05-22 16:29:24.700
52.0, -20650.866109236016, 4431.099227797893, 120.5653095919263, -18058.734304754056, -8057.066268571171, -16359.688801728345, -9996.080100069059, -12566.173084518086, -10587.641368823215, 4373.565837569933, -28812.56089360248, 7594.116937412851, 4440.844588380407, 9257.198483609973, -3515.7729406086137, 8380.026624205902, 0.091, -0.113, 1.001, 192.0, 0.0, 0.0, 0.0, 0.0, 0.0, 0.0, 0.0, 0.0, 0.0, 1.7794601647078242E9, 0.0, 2026-05-22 16:29:24.707
54.0, -20773.912462462482, 4341.871063932307, 114.66444905572523, -18175.298652088484, -8127.429560116478, -16482.73515495481, -9982.3561289735, -12615.659846742135, -10560.95338594358, 4302.017903568495, -28993.811189390566, 7540.58450944239, 4297.860479099808, 9228.945878618464, -3629.7891890751353, 8234.472064312944, 0.0925, -0.1135, 1.0015, 192.0, 1.0, 120.0, 126.0, 56.0, 15.5, 40.0, 0.0, 0.0, 0.0, 1.7794601647158203E9, 0.0, 2026-05-22 16:29:24.715
56.0, -20611.28116980567, 4458.904797900295, 109.92587923120013, -17995.255350500986, -8025.617364122554, -16304.681158623835, -10014.229716566768, -12545.251851707919, -10588.244865923509, 4351.325851836902, -28875.346943777437, 7559.695250951679, 4343.279223832992, 9228.856471640644, -3555.0673073610437, 8331.70215269353, 0.0925, -0.1135, 1.0015, 192.0, 0.0, 0.0, 0.0, 0.0, 0.0, 0.0, 0.0, 0.0, 0.0, 1.7794601647248166E9, 0.0, 2026-05-22 16:29:24.724
58.0, -20737.702636444883, 4353.695136749165, 121.10175145885367, -18164.01102113855, -8117.2818681337685, -16467.49126523629, -9974.085983525036, -12611.234201339985, -10578.432450107628, 4334.76320919552, -28878.207967067716, 7580.571780272935, 4340.865235431818, 9251.632899240602, -3553.9050166493676, 8332.238594560456, 0.0925, -0.1135, 1.0015, 192.0, 0.0, 0.0, 0.0, 0.0, 0.0, 0.0, 0.0, 0.0, 0.0, 1.7794601647328207E9, 0.0, 2026-05-22 16:29:24.732
60.0, -20679.31987992762, 4410.423864176734, 89.71990224360255, -18073.24058690555, -8091.018568398782, -16389.90836023192, -10032.491091786755, -12593.755137175935, -10566.921301713146, 4288.0257115394725, -29008.965672131264, 7515.192927741162, 4257.068545468873, 9191.998445033842, -3657.4382969663498, 8214.981343147916, 0.0925, -0.1135, 1.0015, 192.0, 0.0, 0.0, 0.0, 0.0, 0.0, 0.0, 0.0, 0.0, 0.0, 1.779460164739818E9, 0.0, 2026-05-22 16:29:24.739
62.0, -20646.060484178124, 4433.78143713253, 116.34082988987326, -18060.835368732856, -8064.285882030235, -16367.333098332061, -10003.322065272578, -12571.828075865278, -10586.412022878174, 4364.111049665338, -28820.27224543956, 7592.038225178508, 4435.569576688955, 9268.441411070993, -3526.121798291421, 8374.215170647523, 0.0925, -0.1135, 1.0015, 192.0, 0.0, 0.0, 0.0, 0.0, 0.0, 0.0, 0.0, 0.0, 0.0, 1.7794601647482407E9, 0.0, 2026-05-22 16:29:24.748
64.0, -20774.62771828505, 4349.493008791567, 121.28056541449612, -18181.959471936163, -8135.923223009494, -16486.82552419013, -9985.753594130707, -12615.369274064216, -10567.18952264661, 4297.480499444067, -28991.710125411766, 7544.160788555239, 4273.6088363658, 9257.7349254769, -3630.9961832757217, 8237.668363770052, 0.09125, -0.11375, 1.00275, 192.0, 1.0, 104.0, 126.0, 56.0, 15.5, 48.0, 0.0, 0.0, 0.0, 1.779460164757233E9, 0.0, 2026-05-22 16:29:24.757
66.0, -20598.719489421786, 4476.339158575435, 122.33109740389555, -17985.88996957421, -8026.332619945124, -16309.397376703904, -10013.849736911028, -12544.134264485154, -10585.182676933131, 4355.5279797945, -28873.58115596547, 7571.429916790715, 4353.248101860059, 9212.003256321343, -3553.5473887380826, 8334.160844583612, 0.09125, -0.11375, 1.00275, 192.0, 0.0, 0.0, 0.0, 0.0, 0.0, 0.0, 0.0, 0.0, 0.0, 1.779460164764238E9, 0.0, 2026-05-22 16:29:24.764
68.0, -20732.0923485866, 4364.021642687517, 130.33302191889547, -18163.429875782716, -8118.935897223461, -16471.335765282605, -9979.852733594505, -12608.551992005348, -10572.03985119341, 4344.553273266944, -28869.021400096586, 7599.950742715686, 4372.537657324989, 9213.76904413331, -3547.17714156832, 8337.848882418739, 0.09125, -0.11375, 1.00275, 192.0, 0.0, 0.0, 0.0, 0.0, 0.0, 0.0, 0.0, 0.0, 0.0, 1.7794601647722383E9, 0.0, 2026-05-22 16:29:24.772
70.0, -20672.99433624677, 4419.20809974767, 112.6974955436582, -18063.33876411185, -8070.83494315564, -16378.017232181697, -10008.150042074925, -12570.330508986774, -10569.871731981246, 4289.188002251149, -29013.41366927787, 7523.306610978439, 4235.119132413761, 9212.740863888368, -3645.793038105135, 8214.53430825881, 0.09125, -0.11375, 1.00275, 192.0, 0.0, 0.0, 0.0, 0.0, 0.0, 0.0, 0.0, 0.0, 0.0, 1.7794601647802365E9, 0.0, 2026-05-22 16:29:24.780
72.0, -20632.291809593655, 4435.524873200045, 135.94330977717755, -18044.6080022583, -8044.795160865207, -16355.821949937577, -9987.988768576237, -12560.361630959706, -10581.09230769781, 4378.617331816832, -28803.351974886893, 7611.819519021455, 4432.954422587683, 9285.249922901383, -3495.097576987455, 8395.918714513626, 0.09125, -0.11375, 1.00275, 192.0, 0.0, 0.0, 0.0, 0.0, 0.0, 0.0, 0.0, 0.0, 0.0, 1.7794601647882376E9, 0.0, 2026-05-22 16:29:24.788
74.0, -20759.853215200095, 4344.352107566847, 125.21447243863017, -18175.11983813284, -8128.480092105877, -16494.40276556048, -9984.636006907942, -12617.224468854007, -10557.287699852908, 4310.37745599478, -28976.712104882256, 7553.570872970924, 4277.498039901023, 9227.940050117975, -3616.266383679674, 8246.050267940793, 0.091625, -0.115875, 1.005375, 192.0, 1.0, 112.0, 126.0, 40.0, 15.5, 64.0, 0.0, 0.0, 0.0, 1.7794601647962375E9, 0.0, 2026-05-22 16:29:24.796
76.0, -20591.92455910737, 4474.752184719108, 125.41563813872793, -17981.37491719424, -8014.06151223916, -16300.099051010497, -10000.17046930438, -12530.231479433953, -10584.534476343928, 4352.264625104025, -28869.75900766361, 7563.45034402017, 4358.076078662405, 9235.405532766048, -3549.7475921806804, 8332.551518982831, 0.091625, -0.115875, 1.005375, 192.0, 0.0, 0.0, 0.0, 0.0, 0.0, 0.0, 0.0, 0.0, 0.0, 1.7794601648042383E9, 0.0, 2026-05-22 16:29:24.804
78.0, -20726.258543283766, 4367.240293889081, 126.42146663921675, -18148.856538397853, -8110.88926921955, -16461.389238999993, -9970.06266952308, -12599.655997712136, -10568.62003429175, 4362.635834531287, -28856.549126690523, 7602.543545072502, 4383.534715597, 9236.053733355253, -3527.9099378478454, 8353.919786682103, 0.091625, -0.115875, 1.005375, 192.0, 0.0, 0.0, 0.0, 0.0, 0.0, 0.0, 0.0, 0.0, 0.0, 1.7794601648132389E9, 0.0, 2026-05-22 16:29:24.813
80.0, -20673.95546125835, 4417.844643335896, 112.0045914655437, -18061.684735022158, -8073.226579812358, -16378.888950215454, -10007.993579863738, -12580.142924802652, -10569.782325003425, 4301.772034379486, -29008.809209920077, 7519.596221398858, 4248.060792453384, 9225.973096605909, -3637.2323199787525, 8220.882203684116, 0.091625, -0.115875, 1.005375, 192.0, 0.0, 0.0, 0.0, 0.0, 0.0, 0.0, 0.0, 0.0, 0.0, 1.7794601648192384E9, 0.0, 2026-05-22 16:29:24.819
82.0, -20636.35982708452, 4440.2857947690245, 129.4389521406832, -18042.39517955723, -8054.898149359006, -16358.727676716768, -9994.090794812537, -12561.345107715739, -10593.877505526247, 4378.192648672181, -28809.6998703122, 7603.929353228731, 4408.278096709025, 9228.565898962725, -3501.244306712664, 8387.89443825417, 0.091625, -0.115875, 1.005375, 192.0, 0.0, 0.0, 0.0, 0.0, 0.0, 0.0, 0.0, 0.0, 0.0, 1.7794601648282297E9, 0.0, 2026-05-22 16:29:24.828
84.0, -20773.353668851098, 4341.982822654584, 121.03469622548775, -18191.324852862937, -8150.429505160989, -16509.065509923163, -10002.02566409417, -12639.21858539803, -10561.087496410311, 4311.875022873285, -28979.68488689481, 7558.7341259401, 4313.953735107629, 9201.587343405168, -3618.9038895254007, 8238.316564359257, 0.09181249999999999, -0.1209375, 1.0046875, 192.0, 1.0, 112.0, 126.0, 8.0, 15.5, 48.0, 0.0, 0.0, 0.0, 1.7794601648362374E9, 0.0, 2026-05-22 16:29:24.836
86.0, -20608.375443026478, 4466.683204970742, 118.10661770184252, -17994.003652811487, -8027.964297290361, -16313.733615128234, -10025.65145798343, -12553.969032045488, -10599.823069551358, 4342.228691843592, -28889.38383929537, 7563.0480126199745, 4329.7564184375315, 9262.249977856873, -3567.8525051894794, 8313.820757129282, 0.09181249999999999, -0.1209375, 1.0046875, 192.0, 0.0, 0.0, 0.0, 0.0, 0.0, 0.0, 0.0, 0.0, 0.0, 1.7794601648442376E9, 0.0, 2026-05-22 16:29:24.844
88.0, -20727.733758417817, 4371.934160224696, 134.93748127668874, -18152.92455588872, -8109.726978507874, -16462.328012267117, -9991.185068033346, -12618.476166543505, -10578.924188485646, 4354.768020483019, -28865.109844816907, 7609.450234109192, 4332.371572538802, 9242.044000869275, -3537.118856563432, 8344.040315632858, 0.09181249999999999, -0.1209375, 1.0046875, 192.0, 0.0, 0.0, 0.0, 0.0, 0.0, 0.0, 0.0, 0.0, 0.0, 1.779460164852226E9, 0.0, 2026-05-22 16:29:24.852
90.0, -20679.878673539006, 4414.067198522949, 114.19506242216379, -18074.80520901742, -8072.2654548007795, -16391.472982343792, -10014.944972389338, -12589.597712707247, -10569.089420925311, 4303.6942844026435, -29004.78589591812, 7543.400829243759, 4275.9334177891515, 9218.708779657934, -3639.467494424283, 8217.060055382259, 0.09181249999999999, -0.1209375, 1.0046875, 192.0, 0.0, 0.0, 0.0, 0.0, 0.0, 0.0, 0.0, 0.0, 0.0, 1.7794601648602288E9, 0.0, 2026-05-22 16:29:24.860
92.0, -20636.695103251353, 4435.97190808915, 126.19794919466368, -18049.726551738568, -8056.194550537414, -16366.483732042758, -10008.239449052746, -12570.755192131424, -10586.43437462263, 4368.469639834123, -28807.867027266864, 7618.1674144467615, 4414.000143289583, 9242.423980525014, -3502.3842456798848, 8384.116993441225, 0.09181249999999999, -0.1209375, 1.0046875, 192.0, 0.0, 0.0, 0.0, 0.0, 0.0, 0.0, 0.0, 0.0, 0.0, 1.7794601648692343E9, 0.0, 2026-05-22 16:29:24.869
94.0, -20777.332279364146, 4335.277299317992, 111.82577750990123, -18198.857390744375, -8147.99316501536, -16511.345387857604, -9994.940161101838, -12633.384780095193, -10565.535493556918, 4300.4085779677125, -28982.992945074195, 7569.105335367362, 4263.438792638635, 9217.05475056824, -3621.094360482021, 8241.49051207191, 0.092, -0.11800000000000001, 1.006, 192.0, 1.0, 112.0, 126.0, 40.0, 15.5, 56.0, 0.0, 0.0, 0.0, 1.779460164875238E9, 0.0, 2026-05-22 16:29:24.875
96.0, -20605.64853020293, 4465.83383868144, 114.77620777800176, -18004.08428956083, -8026.77965483423, -16318.718054141767, -10018.051864868625, -12549.453979665515, -10599.890124784724, 4339.747648209053, -28894.412981797814, 7573.732146469611, 4317.887642131763, 9213.500823199847, -3564.3656330544513, 8313.954867596016, 0.092, -0.11800000000000001, 1.006, 192.0, 0.0, 0.0, 0.0, 0.0, 0.0, 0.0, 0.0, 0.0, 0.0, 1.7794601648842347E9, 0.0, 2026-05-22 16:29:24.884
98.0, -20722.81637463765, 4372.9623404696395, 136.3456411773731, -18161.284108315005, -8109.838737230151, -16457.96942209833, -9972.186085246336, -12603.388739036172, -10576.644310551204, 4344.016831400017, -28862.584097693456, 7616.178109190239, 4366.368575855324, 9236.567823477724, -3534.637812928893, 8345.806103444827, 0.092, -0.11800000000000001, 1.006, 192.0, 0.0, 0.0, 0.0, 0.0, 0.0, 0.0, 0.0, 0.0, 0.0, 1.7794601648922365E9, 0.0, 2026-05-22 16:29:24.892
100.0, -20676.23533919279, 4413.910736311762, 122.21933868161902, -18076.973328229586, -8080.401489782512, -16382.19700839484, -9995.387195990945, -12564.384944961661, -10564.61907203425, 4298.463976200102, -29002.93070112833, 7558.5329602400025, 4260.51071411499, 9224.073198327207, -3635.3324217000513, 8226.559546775765, 0.092, -0.11800000000000001, 1.006, 192.0, 0.0, 0.0, 0.0, 0.0, 0.0, 0.0, 0.0, 0.0, 0.0, 1.7794601648992343E9, 0.0, 2026-05-22 16:29:24.899
102.0, -20631.733015982274, 4437.983565090128, 134.4680946431273, -18051.827615717368, -8050.696021401409, -16355.844301682033, -9995.36484424649, -12557.344145458239, -10590.703557813593, 4364.133401409794, -28810.191608690217, 7627.935126773731, 4380.159602184249, 9287.55215258028, -3505.602896881449, 8389.123784199213, 0.092, -0.11800000000000001, 1.006, 192.0, 0.0, 0.0, 0.0, 0.0, 0.0, 0.0, 0.0, 0.0, 0.0, 1.7794601649082296E9, 0.0, 2026-05-22 16:29:24.908
104.0, -20788.01641321378, 4325.1743108241935, 117.01138222353248, -18207.999254226597, -8158.56554014272, -16519.70494028389, -9991.296826755623, -12635.083512673798, -10573.448011094095, 4297.033464554962, -28985.898671853385, 7571.16169585725, 4278.995606779528, 9208.046997552752, -3626.369372173473, 8236.304907358279, 0.092, -0.11800000000000001, 1.006, 192.0, 1.0, 112.0, 126.0, 40.0, 15.5, 56.0, 0.0, 0.0, 0.0, 1.7794601649162357E9, 0.0, 2026-05-22 16:29:24.916
106.0, -20599.50180047772, 4470.684167228243, 134.53514987649322, -17990.270911487452, -8023.11396874356, -16302.155411500386, -10000.997483849225, -12530.946735256523, -10596.38090090524, 4340.127627864794, -28888.6685834728, 7585.667978008745, 4349.694174491665, 9233.125654831607, -3561.638720230904, 8319.654562432119, 0.092, -0.11800000000000001, 1.006, 192.0, 0.0, 0.0, 0.0, 0.0, 0.0, 0.0, 0.0, 0.0, 0.0, 1.7794601649242337E9, 0.0, 2026-05-22 16:29:24.924
108.0, -20743.335276047623, 4354.812723971931, 127.71786781762455, -18164.100428116373, -8124.479129848377, -16475.202617073373, -9991.520344200177, -12616.442157798072, -10589.764784546469, 4336.596052240855, -28866.830929139964, 7617.966248746664, 4347.637814001777, 9234.511462987837, -3535.6212896849265, 8344.688516222062, 0.092, -0.11800000000000001, 1.006, 192.0, 0.0, 0.0, 0.0, 0.0, 0.0, 0.0, 0.0, 0.0, 0.0, 1.7794601649312387E9, 0.0, 2026-05-22 16:29:24.931
110.0, -20699.414098192945, 4396.63283784781, 110.23880365357444, -18084.192941688652, -8092.024396899271, -16398.8714097585, -10015.704931700819, -12590.245913296452, -10591.23999968052, 4277.922723045674, -29030.915085186374, 7532.135550038284, 4223.02683866344, 9178.252122193828, -3658.9135121004, 8199.96097087395, 0.092, -0.11800000000000001, 1.006, 192.0, 0.0, 0.0, 0.0, 0.0, 0.0, 0.0, 0.0, 0.0, 0.0, 1.7794601649402347E9, 0.0, 2026-05-22 16:29:24.940
112.0, -20643.4229783324, 4430.719248142153, 137.6643941002362, -18046.060865647898, -8059.681422672442, -16357.051295882618, -10006.160736818401, -12562.52975017187, -10608.696712100114, 4360.646529274765, -28821.255722195594, 7613.518251600058, 4377.991482972084, 9250.112980617641, -3511.9060888178456, 8385.703967297552, 0.092, -0.11800000000000001, 1.006, 192.0, 0.0, 0.0, 0.0, 0.0, 0.0, 0.0, 0.0, 0.0, 0.0, 1.779460164948232E9, 0.0, 2026-05-22 16:29:24.948
114.0, -20776.125285163558, 4334.025601628495, 141.41948716872778, -18193.515323819556, -8143.299298679745, -16498.6943004959, -9979.226884749756, -12623.371198579216, -10569.558807558871, 4291.311417974403, -28978.96963107224, 7575.0285476480185, 4287.221048739082, 9207.175279518995, -3620.6920290818252, 8245.96086096297, 0.094, -0.116, 1.006, 192.0, 1.0, 120.0, 126.0, 48.0, 15.5, 56.0, 0.0, 0.0, 0.0, 1.7794601649552338E9, 0.0, 2026-05-22 16:29:24.955
116.0, -20599.814724900094, 4471.667643984276, 145.2639872150406, -17988.773344608944, -8020.699980342386, -16297.685062609324, -10002.45034723882, -12529.091540466732, -10596.693825327615, 4340.172331353704, -28892.311917819014, 7588.506649554569, 4326.336601535869, 9256.058544642752, -3560.1635050968534, 8324.50489097892, 0.094, -0.116, 1.006, 192.0, 0.0, 0.0, 0.0, 0.0, 0.0, 0.0, 0.0, 0.0, 0.0, 1.779460164964234E9, 0.0, 2026-05-22 16:29:24.964
118.0, -20726.593819450598, 4364.62513978781, 160.23965600009635, -18159.49596875858, -8110.330475608168, -16453.700238907368, -9975.11416376998, -12598.001968622442, -10578.655967552182, 4351.482314048089, -28859.85718486991, 7628.248051196105, 4338.04891563045, 9282.232437399916, -3524.467769201728, 8357.853693706238, 0.094, -0.116, 1.006, 192.0, 0.0, 0.0, 0.0, 0.0, 0.0, 0.0, 0.0, 0.0, 0.0, 1.7794601649722352E9, 0.0, 2026-05-22 16:29:24.972
120.0, -20700.598740649075, 4397.72807332612, 139.09490574537585, -18087.098668467843, -8092.136155621548, -16406.20278193984, -10013.64857121093, -12589.664767940614, -10586.993168234012, 4281.342539947336, -29021.773221704152, 7544.719582166623, 4257.94026350263, 9193.786584590267, -3650.6433666519365, 8208.655799467064, 0.094, -0.116, 1.006, 192.0, 0.0, 0.0, 0.0, 0.0, 0.0, 0.0, 0.0, 0.0, 0.0, 1.779460164980228E9, 0.0, 2026-05-22 16:29:24.980
122.0, -20628.290847336157, 4438.251786023591, 168.48744970410465, -18034.14738585322, -8041.6212131525535, -16347.864728911487, -9988.793431376629, -12552.806741333812, -10604.33812193133, 4357.539636795478, -28810.482181368137, 7631.421998908759, 4396.543430869989, 9225.7272274169, -3498.8750218004016, 8390.822516777816, 0.094, -0.116, 1.006, 192.0, 0.0, 0.0, 0.0, 0.0, 0.0, 0.0, 0.0, 0.0, 0.0, 1.7794601649872322E9, 0.0, 2026-05-22 16:29:24.987
124.0, -20786.742363779827, 4318.71465667661, 147.61092038284784, -18204.51238209157, -8144.998031258349, -16511.41244309097, -9977.461096937788, -12632.64717252817, -10576.845476251303, 4297.435795955157, -28974.476930436726, 7584.058652407963, 4286.326978960869, 9194.747709601845, -3603.6599998068814, 8256.913215746072, 0.096, -0.122, 1.012, 192.0, 1.5, 0.0, 126.0, 24.0, 15.5, 80.0, 0.0, 0.0, 0.0, 1.7794601649962285E9, 0.0, 2026-05-22 16:29:24.996
126.0, -20620.154812354423, 4444.264405282069, 141.37478367981717, -18011.61682744227, -8039.944832318406, -16316.169955273863, -10016.733111945763, -12547.554081386816, -10616.542174403927, 4313.372589751791, -28915.35656635244, 7565.082021365407, 4294.865345342797, 9233.751503676356, -3574.021586659144, 8306.332922736756, 0.096, -0.122, 1.012, 192.0, 0.0, 0.0, 0.0, 0.0, 0.0, 0.0, 0.0, 0.0, 0.0, 1.779460165004234E9, 0.0, 2026-05-22 16:29:25.004
128.0, -20721.408214736966, 4367.195590400171, 160.84315310038963, -18155.360896034348, -8105.502498805821, -16460.897500621977, -9968.54275090012, -12598.40430002264, -10586.479078111539, 4336.707810963132, -28858.247859269126, 7615.619315578857, 4373.856410247852, 9249.576538750713, -3523.439588956784, 8354.031545404381, 0.096, -0.122, 1.012, 192.0, 0.0, 0.0, 0.0, 0.0, 0.0, 0.0, 0.0, 0.0, 0.0, 1.7794601650112307E9, 0.0, 2026-05-22 16:29:25.011
130.0, -20689.601682377062, 4404.165375729248, 146.2474639710741, -18085.176418444684, -8076.556989736198, -16399.161982436417, -10001.98096060526, -12577.080735812277, -10565.021403434444, 4281.722519603076, -29008.496285497702, 7550.866311891832, 4246.518522085968, 9177.268645437794, -3633.499578654716, 8221.351590317678, 0.096, -0.122, 1.012, 192.0, 0.0, 0.0, 0.0, 0.0, 0.0, 0.0, 0.0, 0.0, 0.0, 1.7794601650202265E9, 0.0, 2026-05-22 16:29:25.020
132.0, -20631.151870626436, 4434.519044699556, 153.02004254103215, -18050.218290116583, -8047.455018455389, -16356.38074354896, -10001.422166993878, -12558.171160003087, -10592.245828181009, 4369.408413101246, -28808.26935866706, 7624.872937783353, 4390.262590678048, 9262.160570879052, -3493.868231042413, 8392.275380167412, 0.096, -0.122, 1.012, 192.0, 0.0, 0.0, 0.0, 0.0, 0.0, 0.0, 0.0, 0.0, 0.0, 1.779460165028226E9, 0.0, 2026-05-22 16:29:25.028
134.0, -20762.311907090178, 4347.257834346036, 158.29505423248463, -18189.223788884137, -8138.068990477203, -16498.26961735125, -9973.951873058304, -12618.319704332318, -10560.260481865464, 4303.962505336107, -28967.078503022018, 7580.638835506301, 4295.714711632098, 9211.01977956531, -3603.23531666223, 8257.382602379634, 0.094, -0.116, 1.014, 192.0, 1.0, 120.0, 126.0, 48.0, 15.5, 88.0, 0.0, 0.0, 0.0, 1.7794601650362303E9, 0.0, 2026-05-22 16:29:25.036
136.0, -20592.17042829638, 4479.781327221552, 152.57300765192602, -17987.07461203034, -8015.737893073308, -16303.474164423247, -9998.672902425875, -12533.941869013534, -10572.75510701598, 4349.5377122804775, -28884.354696792925, 7596.195649647195, 4340.1499796092485, 9222.173300048507, -3548.250025302175, 8328.036466602858, 0.094, -0.116, 1.014, 192.0, 0.0, 0.0, 0.0, 0.0, 0.0, 0.0, 0.0, 0.0, 0.0, 1.7794601650432267E9, 0.0, 2026-05-22 16:29:25.043
138.0, -20704.130316273015, 4394.040035490994, 160.4184699557388, -18142.083959827898, -8097.902905691017, -16444.536023680692, -9962.530131641643, -12586.222599294497, -10573.0456796939, 4356.1091251503385, -28851.676446399266, 7630.550280875002, 4365.519209566022, 9223.335590760184, -3521.6738011448147, 8359.351260584745, 0.094, -0.116, 1.014, 192.0, 0.0, 0.0, 0.0, 0.0, 0.0, 0.0, 0.0, 0.0, 0.0, 1.7794601650522232E9, 0.0, 2026-05-22 16:29:25.052
140.0, -20685.779534075205, 4414.849509578885, 155.21051349765224, -18073.82173226139, -8064.665861685975, -16380.09594441604, -9986.982940075748, -12552.739686100447, -10567.52479881344, 4296.429967454668, -29005.903483140886, 7561.841018419388, 4242.808132506387, 9198.7710236038, -3624.0000872612104, 8234.002677679382, 0.094, -0.116, 1.014, 192.0, 0.0, 0.0, 0.0, 0.0, 0.0, 0.0, 0.0, 0.0, 0.0, 1.7794601650592313E9, 0.0, 2026-05-22 16:29:25.059
142.0, -20624.915733923404, 4452.512198986077, 169.11329854885324, -18033.879164919756, -8026.0643990116605, -16331.346789759016, -9978.779849860652, -12532.71252306849, -10588.624845579248, 4371.263607891036, -28797.920500984255, 7636.94287978922, 4422.672620138243, 9287.619207813646, -3475.45039361124, 8413.330723444311, 0.093, -0.115, 1.012, 192.0, 1.0, 112.0, 126.0, 56.0, 15.5, 72.0, 0.0, 0.0, 0.0, 1.779460165067227E9, 0.0, 2026-05-22 16:29:25.067
144.0, -20785.378907368053, 4337.847749930353, 157.6021501543701, -18201.94193147921, -8141.533510867776, -16497.30849233967, -9972.297843968612, -12612.26238158493, -10570.89991222619, 4299.156880278216, -28970.744189112687, 7589.31131235496, 4296.653484899221, 9206.504727185336, -3593.087624679521, 8268.849047285205, 0.093, -0.115, 1.012, 192.0, 0.0, 0.0, 0.0, 0.0, 0.0, 0.0, 0.0, 0.0, 0.0, 1.779460165076223E9, 0.0, 2026-05-22 16:29:25.076
146.0, -20618.433728031367, 4462.704594457698, 147.43210642720538, -18009.828687885845, -8023.82922456613, -16304.882324323933, -10002.74091991674, -12525.872889265167, -10597.945523017112, 4326.068380602405, -28904.80654296953, 7585.444460564192, 4321.106293333327, 9231.292811786272, -3557.257778317664, 8323.3649520117, 0.093, -0.115, 1.012, 192.0, 0.0, 0.0, 0.0, 0.0, 0.0, 0.0, 0.0, 0.0, 0.0, 1.7794601650842319E9, 0.0, 2026-05-22 16:29:25.084
148.0, -20736.71915968885, 4361.764116497531, 152.03656578499863, -18163.854558927367, -8104.474318560878, -16458.997602343276, -9978.422221949366, -12595.006834865431, -10593.09519447031, 4331.745723694054, -28867.546184962535, 7618.547394102502, 4325.33077303538, 9263.278158101817, -3521.6961528892703, 8357.741934983962, 0.093, -0.115, 1.012, 192.0, 0.0, 0.0, 0.0, 0.0, 0.0, 0.0, 0.0, 0.0, 0.0, 1.7794601650912223E9, 0.0, 2026-05-22 16:29:25.091
150.0, -20706.633711652008, 4399.113881482349, 148.46028667214952, -18098.9227412847, -8079.865047915584, -16394.781040523176, -9995.901286113416, -12570.911654342612, -10587.194333934109, 4275.776955577964, -29032.390300320425, 7542.193835043173, 4205.838347177309, 9207.041169052263, -3637.2546717232076, 8220.3904653061, 0.093, -0.115, 1.012, 192.0, 0.0, 0.0, 0.0, 0.0, 0.0, 0.0, 0.0, 0.0, 0.0, 1.7794601650992312E9, 0.0, 2026-05-22 16:29:25.099
152.0, -20628.98375141427, 4444.867902382362, 179.86448763185592, -18036.56137425439, -8026.690247856409, -16336.890022383932, -9978.936312071839, -12537.942831271033, -10595.039796237921, 4371.5318288245, -28809.632815078836, 7634.908871043786, 4387.870954021329, 9263.702841246468, -3478.378472134885, 8414.38125543371, 0.0925, -0.1175, 1.009, 192.0, 1.0, 112.0, 126.0, 32.0, 15.5, 56.0, 0.0, 0.0, 0.0, 1.7794601651082213E9, 0.0, 2026-05-22 16:29:25.108
154.0, -20798.834657530148, 4314.289011274459, 157.44568794318295, -18219.063367731975, -8153.134066240081, -16517.961504216375, -9984.457192952299, -12621.73952123398, -10584.04273796591, 4295.111214531805, -28982.25533750717, 7582.02464366253, 4270.4125369086905, 9199.240410237362, -3597.982656715233, 8264.44575362751, 0.0925, -0.1175, 1.009, 192.0, 0.0, 0.0, 0.0, 0.0, 0.0, 0.0, 0.0, 0.0, 0.0, 1.779460165115228E9, 0.0, 2026-05-22 16:29:25.115
156.0, -20637.030379418182, 4436.374239489346, 154.22703674161872, -18025.072577604366, -8045.175140520948, -16326.764682145678, -10028.2666120847, -12550.325697699272, -10614.418758680673, 4315.875985130785, -28926.01834845762, 7570.133515612307, 4291.870211585786, 9222.218003537417, -3570.981749413222, 8305.617666914186, 0.0925, -0.1175, 1.009, 192.0, 0.0, 0.0, 0.0, 0.0, 0.0, 0.0, 0.0, 0.0, 0.0, 1.7794601651232305E9, 0.0, 2026-05-22 16:29:25.123
158.0, -20731.95823811987, 4360.914750208229, 183.15019406678607, -18157.43960826869, -8105.860126717106, -16453.29790750717, -9984.211323763291, -12599.030148867387, -10601.477098641051, 4335.746685951553, -28867.948516362732, 7622.503652871091, 4357.807857728942, 9246.961384649443, -3521.6290976559044, 8359.217150118011, 0.0925, -0.1175, 1.009, 192.0, 0.0, 0.0, 0.0, 0.0, 0.0, 0.0, 0.0, 0.0, 0.0, 1.7794601651322217E9, 0.0, 2026-05-22 16:29:25.132
160.0, -20715.842630367595, 4384.451137119668, 163.90534209076668, -18107.30464545544, -8088.26930383078, -16411.20957269783, -10003.478527483765, -12579.070041068799, -10594.302188670898, 4270.524295630968, -29038.51467830118, 7548.564082212935, 4205.033684376917, 9180.8672762951, -3639.7133636132917, 8216.613020493152, 0.0925, -0.1175, 1.009, 192.0, 0.0, 0.0, 0.0, 0.0, 0.0, 0.0, 0.0, 0.0, 0.0, 1.7794601651402233E9, 0.0, 2026-05-22 16:29:25.140
162.0, -20637.27624860719, 4436.3518877448905, 186.57001096844806, -18045.211499358596, -8040.414218951967, -16347.372990533471, -9993.666111667886, -12555.064267523798, -10605.835688809835, 4362.76994499802, -28815.779544804045, 7638.8874815568315, 4381.098375451372, 9240.144102590573, -3482.8935245148573, 8402.71364482804, 0.09525, -0.12075, 1.0045, 192.0, 1.5, 8.0, 126.0, 16.0, 15.5, 32.0, 0.0, 0.0, 0.0, 1.779460165147226E9, 0.0, 2026-05-22 16:29:25.147
164.0, -20796.979462740357, 4320.212223555115, 173.87422011783363, -18217.74461480911, -8158.766705842818, -16526.9022019985, -9998.941123359338, -12640.514986576438, -10587.909589756679, 4286.550496405423, -28983.998773574684, 7584.97507393063, 4246.518522085968, 9238.02068686732, -3600.620162560959, 8257.784933779829, 0.09525, -0.12075, 1.0045, 192.0, 0.0, 0.0, 0.0, 0.0, 0.0, 0.0, 0.0, 0.0, 0.0, 1.77946016515523E9, 0.0, 2026-05-22 16:29:25.155
166.0, -20616.22090533029, 4462.369318290868, 178.72454866463528, -18012.734414665036, -8033.976916548839, -16335.168938060873, -10019.057693369114, -12553.812569834301, -10613.502337158006, 4317.373552009291, -28918.731679765187, 7583.522210541036, 4316.702999675632, 9198.592209648157, -3564.432688287817, 8302.913105835094, 0.09525, -0.12075, 1.0045, 192.0, 0.0, 0.0, 0.0, 0.0, 0.0, 0.0, 0.0, 0.0, 0.0, 1.7794601651642292E9, 0.0, 2026-05-22 16:29:25.164
168.0, -20731.15357531948, 4364.535732809989, 197.8352901739228, -18160.12181760333, -8111.55982155321, -16476.633128718513, -9986.580608675553, -12602.82994542479, -10592.33523515883, 4337.780694696987, -28855.34213248994, 7629.164472718772, 4358.031375173495, 9220.943954103464, -3511.727274862203, 8358.36778382871, 0.09525, -0.12075, 1.0045, 192.0, 0.0, 0.0, 0.0, 0.0, 0.0, 0.0, 0.0, 0.0, 0.0, 1.7794601651722262E9, 0.0, 2026-05-22 16:29:25.172
170.0, -20714.792098378195, 4393.816518046441, 179.35039750938387, -18108.623398378302, -8092.851411444118, -16426.095834505064, -10012.195707821335, -12586.043785338854, -10583.774517032447, 4264.623435094766, -29029.864553196974, 7547.222977545617, 4244.372754618258, 9181.873104795588, -3632.538453643138, 8210.890973912594, 0.09525, -0.12075, 1.0045, 192.0, 0.0, 0.0, 0.0, 0.0, 0.0, 0.0, 0.0, 0.0, 0.0, 1.7794601651792235E9, 0.0, 2026-05-22 16:29:25.179
172.0, -20635.108129395026, 4449.874693140351, 195.73422619512394, -18046.597307514825, -8041.040067796715, -16360.672278484379, -9995.051919824115, -12562.797971105334, -10605.209839965086, 4362.76994499802, -28813.99140524762, 7632.852510553898, 4377.745613783075, 9246.268480571327, -3478.1996581792428, 8398.936200015092, 0.093625, -0.120375, 1.00225, 192.0, 1.0, 112.0, 126.0, 32.0, 15.5, 32.0, 0.0, 0.0, 0.0, 1.7794601651882167E9, 0.0, 2026-05-22 16:29:25.188
174.0, -20795.43719237294, 4324.2355375570705, 169.9850165826102, -18220.270361932562, -8154.162246485025, -16525.337579886625, -9986.468849953277, -12624.935820691087, -10586.970816489556, 4294.70888313161, -28981.428322962325, 7587.344358842893, 4256.599158835311, 9229.951707118953, -3593.75817701318, 8258.63430006913, 0.093625, -0.120375, 1.00225, 192.0, 0.0, 0.0, 0.0, 0.0, 0.0, 0.0, 0.0, 0.0, 0.0, 1.779460165195225E9, 0.0, 2026-05-22 16:29:25.195
176.0, -20615.304483807624, 4458.88244615584, 170.29794100498452, -18015.103699577296, -8034.692172371409, -16327.725807157256, -10014.3638270335, -12536.24409869243, -10599.130165473243, 4317.954697365129, -28921.592703055467, 7586.092661153396, 4286.304627216414, 9255.387992309094, -3561.7281272087253, 8309.730387893962, 0.093625, -0.120375, 1.00225, 192.0, 0.0, 0.0, 0.0, 0.0, 0.0, 0.0, 0.0, 0.0, 0.0, 1.779460165203224E9, 0.0, 2026-05-22 16:29:25.203
178.0, -20715.686168156408, 4371.3753666133125, 178.56808645344813, -18154.667991956234, -8115.158452410514, -16465.16668381294, -9988.50285869871, -12605.176878592596, -10584.243903666009, 4342.00517439904, -28851.38587372135, 7639.155702490295, 4369.363709612335, 9225.369599505615, -3513.2024899962535, 8362.547560041852, 0.093625, -0.120375, 1.00225, 192.0, 0.0, 0.0, 0.0, 0.0, 0.0, 0.0, 0.0, 0.0, 0.0, 1.7794601652112234E9, 0.0, 2026-05-22 16:29:25.211
180.0, -20719.39655773599, 4376.851544004863, 147.186237238197, -18126.080110797895, -8114.309086121212, -16438.009314299743, -10021.762254448206, -12599.566590734315, -10583.819220521358, 4275.79930732242, -29031.69739624231, 7561.282224808005, 4218.802358961387, 9213.25495401084, -3643.1108287704983, 8206.398273277078, 0.093625, -0.120375, 1.00225, 192.0, 0.0, 0.0, 0.0, 0.0, 0.0, 0.0, 0.0, 0.0, 0.0, 1.7794601652202258E9, 0.0, 2026-05-22 16:29:25.220
182.0, -20622.859373433515, 4444.622033193354, 178.8363073869118, -18039.556508011403, -8047.365611477568, -16350.546938246125, -10000.461041982298, -12551.018601777389, -10606.439185910129, 4357.316119350925, -28821.680405340245, 7636.428789666747, 4362.077040919905, 9241.507559002348, -3498.2715247001083, 8388.073252209813, 0.0938125, -0.1191875, 1.0001250000000002, 192.0, 1.0, 120.0, 126.0, 40.0, 15.5, 24.0, 0.0, 0.0, 0.0, 1.7794601652272158E9, 0.0, 2026-05-22 16:29:25.227
184.0, -20782.383773611044, 4333.176235339193, 172.08608056140906, -18206.36757688136, -8155.1457232410585, -16522.11892868506, -9985.351262730512, -12625.382855580194, -10579.058298952377, 4308.343447249347, -28964.910383809853, 7611.417187621259, 4283.42125218168, 9188.332758943172, -3588.7290345107363, 8269.765468807873, 0.0938125, -0.1191875, 1.0001250000000002, 192.0, 0.0, 0.0, 0.0, 0.0, 0.0, 0.0, 0.0, 0.0, 0.0, 1.7794601652352235E9, 0.0, 2026-05-22 16:29:25.235
186.0, -20612.51051575071, 4461.587007234933, 170.2532375160739, -18007.392347740217, -8026.869061812051, -16317.444004707815, -10006.294847285133, -12534.411255647095, -10595.889162527224, 4330.941060893662, -28915.71419426372, 7601.403606105281, 4297.435795955157, 9211.757387132333, -3557.570702740038, 8308.322227993278, 0.0938125, -0.1191875, 1.0001250000000002, 192.0, 0.0, 0.0, 0.0, 0.0, 0.0, 0.0, 0.0, 0.0, 0.0, 1.7794601652442174E9, 0.0, 2026-05-22 16:29:25.244
188.0, -20710.165287275948, 4370.280131135003, 177.5622579529593, -18152.72339018862, -8096.003007412316, -16449.76633188323, -9972.320195713068, -12597.979616877989, -10579.661796052671, 4339.85940693133, -28850.111824287396, 7643.782513592543, 4354.253930360547, 9285.652254301578, -3501.937210790779, 8364.46981006501, 0.0938125, -0.1191875, 1.0001250000000002, 192.0, 0.0, 0.0, 0.0, 0.0, 0.0, 0.0, 0.0, 0.0, 0.0, 1.7794601652512217E9, 0.0, 2026-05-22 16:29:25.251
190.0, -20715.30618850067, 4384.786413286497, 154.4058506972612, -18107.68462511118, -8098.4393475579445, -16423.190107725874, -10004.417300750889, -12576.588997434259, -10574.297377383396, 4284.248266726526, -29028.009358407184, 7570.446440034681, 4192.561410970857, 9240.524082246315, -3627.531662885149, 8217.171814104535, 0.0938125, -0.1191875, 1.0001250000000002, 192.0, 0.0, 0.0, 0.0, 0.0, 0.0, 0.0, 0.0, 0.0, 0.0, 1.7794601652592168E9, 0.0, 2026-05-22 16:29:25.259
192.0, -20632.02358866019, 4431.881538853829, 180.53503996551515, -18038.7071417221, -8043.0293730532385, -16349.71992370128, -9996.996521591725, -12544.938927285544, -10607.087386499332, 4365.139229910282, -28823.960283274686, 7644.251900226105, 4411.742617099598, 9235.96432637743, -3486.0227687386, 8390.442537122075, 0.096, -0.112, 0.998, 192.0, 1.5, 0.0, 126.0, 64.0, 15.5, 24.0, 0.0, 0.0, 0.0, 1.7794601652672188E9, 0.0, 2026-05-22 16:29:25.267
194.0, -20782.719049777872, 4324.079075345883, 171.46023171666047, -18208.379233882337, -8137.979583499383, -16504.952788943385, -9973.348375958012, -12606.741500704467, -10578.767726274458, 4296.541726176944, -28966.050322777075, 7604.331684628926, 4292.138432519249, 9230.599907708158, -3579.2965983505965, 8271.821829297762, 0.096, -0.112, 0.998, 192.0, 0.0, 0.0, 0.0, 0.0, 0.0, 0.0, 0.0, 0.0, 0.0, 1.7794601652762237E9, 0.0, 2026-05-22 16:29:25.276
196.0, -20617.070271619592, 4452.802771663996, 157.9150745767444, -18007.66056867368, -8027.830186823629, -16318.203964019296, -10013.581515977565, -12532.220784690475, -10598.705482328593, 4333.377401039291, -28923.71611877872, 7601.493013083103, 4278.034481767951, 9268.620225026634, -3555.8719701614345, 8310.624457672175, 0.096, -0.112, 0.998, 192.0, 0.0, 0.0, 0.0, 0.0, 0.0, 0.0, 0.0, 0.0, 0.0, 1.7794601652832174E9, 0.0, 2026-05-22 16:29:25.283
198.0, -20717.876639113027, 4369.296654378969, 165.8275921139231, -18150.35410527636, -8099.22165861388, -16454.30373600766, -9981.640873150931, -12592.503439486438, -10586.657892067182, 4351.661128003732, -28856.10209180142, 7645.704763615699, 4335.031430128984, 9213.97020983341, -3505.4911381591724, 8362.927539697594, 0.096, -0.112, 0.998, 192.0, 0.0, 0.0, 0.0, 0.0, 0.0, 0.0, 0.0, 0.0, 0.0, 1.7794601652912169E9, 0.0, 2026-05-22 16:29:25.291
200.0, -20718.748357146786, 4383.020625474528, 150.9860337955992, -18122.54853517396, -8094.974827167372, -16419.278552446194, -9996.750652402718, -12573.459753210516, -10577.09134544031, 4280.023787024473, -29032.144431131415, 7562.824495175421, 4247.122019186261, 9214.39489297806, -3631.0408867646324, 8211.650933224075, 0.096, -0.112, 0.998, 192.0, 0.0, 0.0, 0.0, 0.0, 0.0, 0.0, 0.0, 0.0, 0.0, 1.7794601653002129E9, 0.0, 2026-05-22 16:29:25.300
202.0, -20616.958512897316, 4455.037946109527, 167.88395260381134, -18025.921943893667, -8030.2888787137135, -16332.37497000396, -9987.07234705357, -12531.438473634538, -10595.531534615939, 4363.127572909305, -28817.813553549477, 7639.781551335043, 4380.494878351078, 9269.246073871383, -3480.457184369229, 8399.338531415287, 0.1, -0.116, 1.0, 192.0, 1.5, 16.0, 126.0, 48.0, 15.5, 32.0, 0.0, 0.0, 0.0, 1.779460165307221E9, 0.0, 2026-05-22 16:29:25.307
204.0, -20790.944491737428, 4322.983839867573, 150.0919640173869, -18211.620236828356, -8148.261385948824, -16514.385225103524, -9984.211323763291, -12622.231259611995, -10576.152572173187, 4309.5057379610225, -28971.39238970189, 7607.058597452474, 4230.961707945074, 9200.782680604778, -3579.833040217524, 8277.342710178222, 0.1, -0.116, 1.0, 192.0, 0.0, 0.0, 0.0, 0.0, 0.0, 0.0, 0.0, 0.0, 0.0, 1.7794601653152184E9, 0.0, 2026-05-22 16:29:25.315
206.0, -20632.42592006039, 4444.979661104639, 137.53028363350435, -18019.931676379645, -8039.207224751381, -16327.23406877924, -10015.481414256265, -12540.915613283589, -10599.085461984332, 4319.09463633235, -28939.71996780872, 7581.1305738843175, 4324.727275935087, 9228.096512329163, -3571.7417087247027, 8290.127908006658, 0.1, -0.116, 1.0, 192.0, 0.0, 0.0, 0.0, 0.0, 0.0, 0.0, 0.0, 0.0, 0.0, 1.7794601653232148E9, 0.0, 2026-05-22 16:29:25.323
208.0, -20735.19924106589, 4356.846732717363, 143.22997846960766, -18155.763227434545, -8103.088510404648, -16457.611794187047, -9985.172448774869, -12598.82898316729, -10603.108775986288, 4330.918709149207, -28873.469397243192, 7623.800054049499, 4311.696208917643, 9240.032343868297, -3514.342428963474, 8354.389173315665, 0.1, -0.116, 1.0, 192.0, 0.0, 0.0, 0.0, 0.0, 0.0, 0.0, 0.0, 0.0, 0.0, 1.7794601653322208E9, 0.0, 2026-05-22 16:29:25.332
210.0, -20749.102026117092, 4354.857427460841, 120.69942005865813, -18134.88669811329, -8114.152623910025, -16442.6808288909, -10014.497937500231, -12593.218695309008, -10590.971778747056, 4266.031594995451, -29047.634190038945, 7548.653489190757, 4230.559376544878, 9172.95475875792, -3643.0884770260427, 8203.649008709075, 0.1, -0.116, 1.0, 192.0, 0.0, 0.0, 0.0, 0.0, 0.0, 0.0, 0.0, 0.0, 0.0, 1.7794601653397954E9, 0.0, 2026-05-22 16:29:25.339
212.0, -20658.5774610731, 4415.229489234625, 129.59541435187035, -18054.62158377428, -8057.625062182554, -16357.163054604896, -10017.515423001698, -12560.763962359903, -10633.842424612336, 4332.371572538802, -28852.503460944114, 7611.238373665617, 4316.591240953355, 9239.07121885672, -3510.0732457725103, 8372.829362491293, 0.1, -0.12, 1.0, 192.0, 1.5, 16.0, 126.0, 32.0, 15.5, 32.0, 0.0, 0.0, 0.0, 1.7794601653477917E9, 0.0, 2026-05-22 16:29:25.347
214.0, -20802.92502676547, 4315.7865781529645, 139.09490574537585, -18216.761138053076, -8159.2584442208345, -16516.016902448762, -9987.519381942677, -12616.486861286981, -10600.359511418284, 4282.594237636833, -28990.480779466725, 7581.1305738843175, 4262.6564815827, 9217.457081968438, -3601.8048050170905, 8258.142561691113, 0.1, -0.12, 1.0, 192.0, 0.0, 0.0, 0.0, 0.0, 0.0, 0.0, 0.0, 0.0, 0.0, 1.7794601653557973E9, 0.0, 2026-05-22 16:29:25.355
216.0, -20636.35982708452, 4449.718230929164, 128.50017887356032, -18020.33400777984, -8041.643564897009, -16322.875478610455, -10022.097530615036, -12533.830110291257, -10607.757938832992, 4323.408523012224, -28942.223363187717, 7583.477507052125, 4291.937266819152, 9211.757387132333, -3569.5512377680825, 8295.984065053948, 0.1, -0.12, 1.0, 192.0, 0.0, 0.0, 0.0, 0.0, 0.0, 0.0, 0.0, 0.0, 0.0, 1.779460165362794E9, 0.0, 2026-05-22 16:29:25.362
218.0, -20727.37613050653, 4359.640700774276, 144.66049011474732, -18156.12085534583, -8112.185670397958, -16453.58848018509, -9993.554352945608, -12598.650169211647, -10605.411005665184, 4342.452209288145, -28873.268231543094, 7628.695086085211, 4302.621400668789, 9222.150948304052, -3517.7622458651363, 8353.89743493765, 0.1, -0.12, 1.0, 192.0, 0.0, 0.0, 0.0, 0.0, 0.0, 0.0, 0.0, 0.0, 0.0, 1.779460165370796E9, 0.0, 2026-05-22 16:29:25.370
220.0, -20755.40521805349, 4351.281148347992, 135.58568186589264, -18127.331808487394, -8113.906754721017, -16433.516613664226, -10013.55916423311, -12585.417936494105, -10595.263313682475, 4253.425211122658, -29048.237687139237, 7550.799256658466, 4223.898556697197, 9211.153890032041, -3640.2945089691293, 8203.805470920262, 0.1, -0.12, 1.0, 192.0, 0.0, 0.0, 0.0, 0.0, 0.0, 0.0, 0.0, 0.0, 0.0, 1.7794601653797917E9, 0.0, 2026-05-22 16:29:25.379
222.0, -20672.793170546673, 4397.862183792851, 136.56915862192616, -18044.8091679584, -8052.081829557637, -16356.71601971579, -10015.392007278444, -12551.689154111047, -10627.025142553466, 4335.009078384528, -28845.306199229504, 7626.549318617502, 4348.5989390133545, 9246.40259103806, -3499.925553789801, 8376.696214282061, 0.1, -0.124, 1.004, 192.0, 1.5, 16.0, 126.0, 16.0, 15.5, 48.0, 0.0, 0.0, 0.0, 1.7794601653867948E9, 0.0, 2026-05-22 16:29:25.386
224.0, -20826.595524143642, 4284.829412082364, 138.26789120052948, -18223.354902667394, -8147.188502214969, -16521.917762984966, -9989.240466265735, -12622.857108456745, -10603.466403897573, 4282.951865548118, -28985.83161662002, 7589.646588521789, 4247.03261220844, 9178.587398360658, -3589.7348630112247, 8260.087163458726, 0.1, -0.124, 1.004, 192.0, 0.0, 0.0, 0.0, 0.0, 0.0, 0.0, 0.0, 0.0, 0.0, 1.7794601653947923E9, 0.0, 2026-05-22 16:29:25.394
226.0, -20677.956423515847, 4401.505518139067, 119.49242585807156, -18034.95204865361, -8047.499721944299, -16330.944458358821, -10020.711722458807, -12546.235328463952, -10627.650991398215, 4280.604932380311, -28970.40891294586, 7556.029564861008, 4246.026783707951, 9223.961439604931, -3585.0409966756106, 8271.620663597663, 0.1, -0.124, 1.004, 192.0, 0.0, 0.0, 0.0, 0.0, 0.0, 0.0, 0.0, 0.0, 0.0, 1.7794601654037893E9, 0.0, 2026-05-22 16:29:25.403
228.0, -20752.745360463305, 4343.368630810814, 135.65273709925856, -18150.7340849321, -8106.12834765057, -16439.372770711514, -9983.83134410755, -12582.221637036997, -10616.050436025911, 4325.509586991023, -28874.63168795487, 7624.671772083256, 4360.24419787457, 9262.719364490435, -3508.1062922604433, 8362.592263530763, 0.1, -0.124, 1.004, 192.0, 0.0, 0.0, 0.0, 0.0, 0.0, 0.0, 0.0, 0.0, 0.0, 1.7794601654117928E9, 0.0, 2026-05-22 16:29:25.411
230.0, -20765.955241436393, 4350.208264614137, 116.29612640096265, -18131.623343422812, -8116.834833244662, -16438.456349188848, -10012.329818288066, -12587.898980128644, -10592.178772947642, 4255.682737312643, -29054.183251164348, 7549.63696594679, 4220.903422940186, 9195.91000031352, -3638.439314179339, 8208.119357600137, 0.1, -0.124, 1.004, 192.0, 0.0, 0.0, 0.0, 0.0, 0.0, 0.0, 0.0, 0.0, 0.0, 1.7794601654187932E9, 0.0, 2026-05-22 16:29:25.418
232.0, -20665.014763476225, 4408.009875775561, 127.2261294396078, -18046.61965925928, -8047.834998111129, -16351.865691168989, -10014.430882266866, -12554.81839833479, -10629.439130954639, 4335.813741184919, -28857.62201042438, 7625.297620928004, 4326.224842813593, 9252.415210296538, -3506.7204841042144, 8373.365804358222, 0.1, -0.11800000000000001, 1.006, 192.0, 1.5, 16.0, 126.0, 40.0, 15.5, 56.0, 0.0, 0.0, 0.0, 1.779460165426793E9, 0.0, 2026-05-22 16:29:25.426
234.0, -20819.912352551502, 4290.909086574207, 132.63525159779212, -18225.679484090746, -8159.660775621031, -16531.23844042283, -9996.191858791335, -12631.037846927387, -10598.370206161762, 4288.383339450757, -28987.619756176446, 7599.146079915296, 4222.021010162951, 9224.989619849875, -3594.2052119022865, 8259.126038447146, 0.1, -0.11800000000000001, 1.006, 192.0, 0.0, 0.0, 0.0, 0.0, 0.0, 0.0, 0.0, 0.0, 0.0, 1.7794601654357872E9, 0.0, 2026-05-22 16:29:25.435
236.0, -20653.19069065937, 4422.8514340938855, 132.65760334224743, -18018.344702523318, -8047.052687055193, -16332.173804303862, -10028.378370806977, -12541.921441784078, -10617.548002904416, 4295.08886278735, -28964.21747973174, 7580.795297717488, 4282.884810314752, 9217.211212779428, -3585.935066453823, 8273.006471753892, 0.1, -0.11800000000000001, 1.006, 192.0, 0.0, 0.0, 0.0, 0.0, 0.0, 0.0, 0.0, 0.0, 0.0, 1.7794601654427924E9, 0.0, 2026-05-22 16:29:25.442
238.0, -20744.47521501484, 4342.876892432796, 136.30093768846245, -18144.855576140355, -8111.984504697861, -16454.884881363498, -10002.562105961098, -12601.533544246382, -10603.645217853214, 4334.785560939975, -28865.80274889502, 7648.342269461426, 4361.942930453173, 9221.458044225938, -3515.214146997231, 8357.451362306043, 0.1, -0.11800000000000001, 1.006, 192.0, 0.0, 0.0, 0.0, 0.0, 0.0, 0.0, 0.0, 0.0, 0.0, 1.779460165450791E9, 0.0, 2026-05-22 16:29:25.450
240.0, -20759.137959377524, 4348.174255868704, 123.15811194874192, -18130.058721310943, -8119.114711179103, -16437.69638987737, -10016.800167179128, -12596.63851221067, -10600.560677118383, 4253.313452400381, -29059.525318089167, 7560.432858518703, 4214.287306581415, 9217.211212779428, -3656.0748405545764, 8194.618903949131, 0.099, -0.119, 1.004, 192.0, 1.5, 8.0, 126.0, 32.0, 15.5, 40.0, 0.0, 0.0, 0.0, 1.7794601654597833E9, 0.0, 2026-05-22 16:29:25.459
242.0, -20648.787397001674, 4433.200291776692, 147.65562387175845, -18020.62458045776, -8039.073114284649, -16336.979429361754, -10001.891553627438, -12535.595898103225, -10624.700561130114, 4348.196607613159, -28847.47431844167, 7639.781551335043, 4328.437665514668, 9265.245111613884, -3505.2899724590748, 8381.390080617677, 0.099, -0.119, 1.004, 192.0, 0.0, 0.0, 0.0, 0.0, 0.0, 0.0, 0.0, 0.0, 0.0, 1.779460165467792E9, 0.0, 2026-05-22 16:29:25.467
244.0, -20815.84433506064, 4301.0567785569165, 151.2766064735182, -18217.118765964362, -8162.633557633586, -16527.08101595414, -9999.768137904184, -12637.899832475166, -10592.357586903285, 4306.2200315260925, -28973.11347402495, 7621.6319348373345, 4287.489269672546, 9208.494032441859, -3588.572572299549, 8273.721727576461, 0.099, -0.119, 1.004, 192.0, 0.0, 0.0, 0.0, 0.0, 0.0, 0.0, 0.0, 0.0, 0.0, 1.779460165474791E9, 0.0, 2026-05-22 16:29:25.474
246.0, -20663.71836229782, 4424.416056205757, 142.06768775793168, -18022.323313036362, -8049.064344056171, -16332.66554268188, -10040.917699446405, -12546.794122075335, -10613.681151113648, 4290.685569129654, -28970.118340267938, 7579.141268627795, 4272.848877054319, 9234.39970426556, -3598.2061741597863, 8271.77712580885, 0.099, -0.119, 1.004, 192.0, 0.0, 0.0, 0.0, 0.0, 0.0, 0.0, 0.0, 0.0, 0.0, 1.7794601654827895E9, 0.0, 2026-05-22 16:29:25.482
248.0, -20752.47713952984, 4348.375421568802, 160.50787693356003, -18141.726331916612, -8125.4179031155, -16464.317317523637, -10009.088815342047, -12609.02137863891, -10624.924078574668, 4326.805988169431, -28879.14674033484, 7635.758237333088, 4306.175328037182, 9236.858396155643, -3526.8370541139907, 8355.75262972744, 0.099, -0.119, 1.004, 192.0, 0.0, 0.0, 0.0, 0.0, 0.0, 0.0, 0.0, 0.0, 0.0, 1.7794601654917867E9, 0.0, 2026-05-22 16:29:25.491
250.0, -20771.498474061307, 4347.324889579402, 148.50499016106014, -18141.525166216514, -8130.4917491068545, -16461.16572155544, -10026.612582995009, -12608.35082630525, -10602.684092841637, 4258.856685025297, -29060.03940821164, 7563.45034402017, 4257.582635591345, 9185.359976930617, -3659.1593812894084, 8188.874505624117, 0.0975, -0.1215, 1.005, 192.0, 1.5, 0.0, 126.0, 16.0, 15.5, 56.0, 0.0, 0.0, 0.0, 1.7794601654987924E9, 0.0, 2026-05-22 16:29:25.498
252.0, -20654.576498815597, 4424.863091094862, 160.35141472237288, -18046.776121470466, -8046.829169610641, -16350.882214412954, -10009.535850231154, -12549.565738387793, -10628.276840242963, 4336.90897666323, -28856.929106346266, 7624.939993016719, 4349.157732624738, 9260.394783067082, -3518.0081150541446, 8364.402754831643, 0.0975, -0.1215, 1.005, 192.0, 0.0, 0.0, 0.0, 0.0, 0.0, 0.0, 0.0, 0.0, 0.0, 1.7794601655067892E9, 0.0, 2026-05-22 16:29:25.506
254.0, -20809.183515212957, 4312.724389162587, 159.43499319970527, -18216.4482136307, -8157.939691297972, -16523.527088585746, -9987.899361598416, -12618.945553177065, -10590.658854324682, 4294.798290109431, -28971.88412807991, 7604.868126495854, 4269.384356663747, 9248.861282928143, -3584.705720508781, 8270.346614163711, 0.0975, -0.1215, 1.005, 192.0, 0.0, 0.0, 0.0, 0.0, 0.0, 0.0, 0.0, 0.0, 0.0, 1.7794601655157847E9, 0.0, 2026-05-22 16:29:25.515
0.0, -20658.376295373, 4432.64149816531, 151.70128961816903, -18022.680940947645, -8059.010870338782, -16342.097978842019, -10031.887594686461, -12551.085657010753, -10610.306037700897, 4309.237517027559, -28966.787930344097, 7582.0693471514405, 4271.239551453537, 9218.999352335853, -3593.109976423976, 8269.765468807873, 0.0975, -0.1215, 1.005, 192.0, 0.0, 0.0, 0.0, 0.0, 0.0, 0.0, 0.0, 0.0, 0.0, 1.779460165522786E9, 0.0, 2026-05-22 16:29:25.522
2.0, -20727.309075273166, 4377.164468427238, 174.00833058456547, -18133.612648679336, -8102.999103426827, -16449.073427805117, -9995.297789013122, -12598.650169211647, -10605.075729498354, 4347.459000046134, -28861.533565704056, 7648.319917716971, 4340.664069731721, 9248.54835850577, -3511.0120190396333, 8361.742897241462, 0.0975, -0.1215, 1.005, 192.0, 0.0, 0.0, 0.0, 0.0, 0.0, 0.0, 0.0, 0.0, 0.0, 1.7794601655307877E9, 0.0, 2026-05-22 16:29:25.530
4.0, -20766.62579377005, 4358.925444951707, 143.18527498069705, -18142.374532505815, -8136.191443942958, -16470.464047248846, -10028.065446384602, -12607.54616350486, -10593.050490981399, 4272.491249143034, -29055.725521531764, 7564.836152176399, 4220.88107119573, 9236.389009522081, -3650.5986631630262, 8192.42843299251, 0.09575, -0.12275, 1.0085, 192.0, 1.0, 120.0, 126.0, 16.0, 15.5, 80.0, 0.0, 0.0, 0.0, 1.7794601655387888E9, 0.0, 2026-05-22 16:29:25.538
6.0, -20668.345173400066, 4413.955439800673, 147.8344378274009, -18048.31839183788, -8075.305292046702, -16371.19995012283, -10038.3696005785, -12570.241102008951, -10631.763712377991, 4348.442476802168, -28862.695856415732, 7624.98469650563, 4345.156770367238, 9228.655305940545, -3519.5950889104715, 8358.188969873068, 0.09575, -0.12275, 1.0085, 192.0, 0.0, 0.0, 0.0, 0.0, 0.0, 0.0, 0.0, 0.0, 0.0, 1.7794601655477896E9, 0.0, 2026-05-22 16:29:25.547
8.0, -20815.687872849452, 4308.701075160632, 152.64006288529194, -18221.633818344333, -8169.920226326017, -16541.22967019435, -9996.795355891629, -12633.384780095193, -10611.960066790589, 4281.878981814263, -28988.759695143664, 7588.640760021301, 4247.054963952895, 9207.085872541174, -3604.4199591183615, 8252.487570343921, 0.09575, -0.12275, 1.0085, 192.0, 0.0, 0.0, 0.0, 0.0, 0.0, 0.0, 0.0, 0.0, 0.0, 1.779460165554786E9, 0.0, 2026-05-22 16:29:25.554
